STEVAL-MKI243A (ASM330LHHXG1)

A_X [mg] 	 A_Y [mg] 	 A_Z [mg] 	A_X [deg] 	 A_Y [deg] 	 A_Z [deg] 	G_X [dps] 	 G_Y [dps] 	 G_Z [dps] 	TEMP [C] 	
-44.713 	 -191.052 	 1003.33 	-2 	 -10 	 79 	0.69125 	 -1.19875 	 -0.62125 	29.2 	
-41.358 	 -191.967 	 1002.23 	-2 	 -10 	 79 	0.84875 	 -1.0675 	 -0.5775 	29.2 	
-44.713 	 -191.845 	 1003.51 	-2 	 -10 	 79 	0.6125 	 -1.1725 	 -0.63875 	29.2 	
-44.103 	 -193.126 	 1003.75 	-2 	 -10 	 79 	0.525 	 -1.21625 	 -0.6125 	29.2 	
-43.676 	 -193.797 	 1001.99 	-2 	 -10 	 79 	0.70875 	 -1.1725 	 -0.6125 	29.2 	
-44.835 	 -193.492 	 1000.64 	-2 	 -10 	 79 	0.84875 	 -1.04125 	 -0.63 	29.2 	
-42.395 	 -191.906 	 1001.38 	-2 	 -10 	 79 	0.805 	 -1.155 	 -0.56 	29.2 	
-40.748 	 -195.505 	 1003.63 	-2 	 -11 	 79 	0.76125 	 -1.09375 	 -0.63 	29.2 	
-42.517 	 -194.712 	 1003.21 	-2 	 -10 	 79 	0.79625 	 -1.0675 	 -0.44625 	29.2 	
-42.273 	 -194.224 	 1002.72 	-2 	 -10 	 79 	0.665 	 -1.02375 	 -0.595 	29.2 	
-42.395 	 -194.529 	 1003.51 	-2 	 -10 	 79 	0.74375 	 -1.28625 	 -0.5425 	29.2 	
-43.188 	 -194.529 	 1002.72 	-2 	 -10 	 79 	0.77 	 -1.11125 	 -0.55125 	29.2 	
-44.53 	 -193.553 	 1002.11 	-2 	 -10 	 79 	0.53375 	 -0.9975 	 -0.6475 	29.2 	
-44.591 	 -193.004 	 1001.44 	-2 	 -10 	 79 	0.7 	 -1.05 	 -0.5775 	29.2 	
-43.737 	 -193.736 	 999.79 	-2 	 -10 	 79 	0.595 	 -1.00625 	 -0.6475 	29.2 	
-44.469 	 -193.309 	 1002.72 	-2 	 -10 	 79 	0.7 	 -1.12 	 -0.44625 	29.2 	
-43.615 	 -192.577 	 1002.78 	-2 	 -10 	 79 	0.62125 	 -1.16375 	 -0.4725 	29.2 	
-42.517 	 -192.394 	 1002.66 	-2 	 -10 	 79 	0.77 	 -1.05 	 -0.455 	29.2 	
-44.042 	 -192.821 	 1002.11 	-2 	 -10 	 79 	0.69125 	 -1.26875 	 -0.6125 	29.2 	
-44.286 	 -193.736 	 1000.7 	-2 	 -10 	 79 	0.60375 	 -1.225 	 -0.5775 	29.2 	
-45.567 	 -193.492 	 999.912 	-2 	 -10 	 79 	0.7175 	 -1.1725 	 -0.55125 	29.2 	
-44.53 	 -191.54 	 1000.52 	-2 	 -10 	 79 	0.84 	 -1.16375 	 -0.44625 	29.2 	
-45.506 	 -192.638 	 1001.31 	-2 	 -10 	 79 	0.77875 	 -1.16375 	 -0.41125 	29.2 	
-46.97 	 -191.601 	 1001.56 	-2 	 -10 	 79 	0.525 	 -1.2075 	 -0.39375 	29.2 	
-45.201 	 -191.174 	 1002.96 	-2 	 -10 	 79 	0.7875 	 -1.2075 	 -0.49 	29.3 	
-46.36 	 -191.601 	 1002.72 	-2 	 -10 	 79 	0.70875 	 -1.21625 	 -0.5425 	29.3 	
-47.641 	 -192.516 	 1003.45 	-2 	 -10 	 79 	0.65625 	 -1.1375 	 -0.55125 	29.3 	
-47.458 	 -191.601 	 1002.84 	-2 	 -10 	 79 	0.805 	 -1.33875 	 -0.48125 	29.3 	
-45.872 	 -191.784 	 1000.22 	-2 	 -10 	 79 	0.88375 	 -1.19 	 -0.39375 	29.3 	
-46.055 	 -190.93 	 1000.58 	-2 	 -10 	 79 	0.62125 	 -1.02375 	 -0.53375 	29.3 	
-44.713 	 -190.747 	 1003.02 	-2 	 -10 	 79 	0.70875 	 -1.18125 	 -0.48125 	29.3 	
-43.188 	 -190.076 	 1002.96 	-2 	 -10 	 79 	0.6475 	 -1.19875 	 -0.55125 	29.3 	
-42.944 	 -189.1 	 1004.61 	-2 	 -10 	 79 	0.76125 	 -1.14625 	 -0.49 	29.2 	
-41.907 	 -188.612 	 1002.84 	-2 	 -10 	 79 	0.81375 	 -1.1725 	 -0.4025 	29.2 	
-40.687 	 -189.71 	 1004.12 	-2 	 -10 	 79 	0.805 	 -1.225 	 -0.51625 	29.2 	
-39.345 	 -189.466 	 1002.9 	-2 	 -10 	 79 	0.72625 	 -1.1375 	 -0.55125 	29.2 	
-41.663 	 -190.198 	 1002.9 	-2 	 -10 	 79 	0.735 	 -1.1375 	 -0.49 	29.2 	
-37.393 	 -190.198 	 1002.35 	-2 	 -10 	 79 	0.88375 	 -1.225 	 -0.41125 	29.2 	
-38.796 	 -192.089 	 999.668 	-2 	 -10 	 79 	0.6475 	 -1.19875 	 -0.4025 	29.2 	
-41.053 	 -191.662 	 1001.38 	-2 	 -10 	 79 	0.805 	 -1.155 	 -0.3675 	29.2 	
-40.138 	 -192.455 	 1004.3 	-2 	 -10 	 79 	0.805 	 -1.1375 	 -0.30625 	29.2 	
-41.175 	 -191.296 	 1006.01 	-2 	 -10 	 79 	0.735 	 -1.14625 	 -0.4025 	29.2 	
-42.395 	 -195.444 	 1001.74 	-2 	 -11 	 79 	0.63 	 -1.1375 	 -0.49875 	29.2 	
-44.286 	 -193.37 	 1001.5 	-2 	 -10 	 79 	0.63 	 -1.04125 	 -0.42 	29.2 	
-44.103 	 -193.126 	 1001.74 	-2 	 -10 	 79 	0.6825 	 -1.07625 	 -0.4375 	29.2 	
-46.726 	 -193.614 	 1000.64 	-2 	 -10 	 79 	0.91 	 -1.085 	 -0.39375 	29.2 	
-47.58 	 -195.566 	 1001.99 	-2 	 -11 	 79 	0.70875 	 -1.16375 	 -0.5775 	29.2 	
-49.654 	 -197.518 	 1001.56 	-2 	 -11 	 79 	0.525 	 -1.28625 	 -0.5075 	29.2 	
-49.898 	 -196.969 	 1000.28 	-2 	 -11 	 79 	0.69125 	 -1.23375 	 -0.42875 	29.2 	
-53.436 	 -197.823 	 1000.4 	-2 	 -11 	 79 	0.72625 	 -1.085 	 -0.49 	29.2 	
-52.033 	 -197.579 	 1000.4 	-2 	 -11 	 79 	0.665 	 -1.02375 	 -0.5075 	29.2 	
-54.29 	 -197.518 	 1002.66 	-3 	 -11 	 79 	0.79625 	 -1.02375 	 -0.455 	29.2 	
-56.974 	 -197.518 	 1001.44 	-3 	 -11 	 79 	0.805 	 -1.12 	 -0.53375 	29.2 	
-56.303 	 -198.372 	 1000.1 	-3 	 -11 	 78 	0.7525 	 -1.155 	 -0.525 	29.2 	
-56.059 	 -196.237 	 1000.52 	-3 	 -11 	 79 	0.86625 	 -1.19 	 -0.56875 	29.2 	
-54.778 	 -195.383 	 1001.5 	-3 	 -11 	 79 	0.69125 	 -1.19 	 -0.70875 	29.2 	
-55.083 	 -194.59 	 997.96 	-3 	 -11 	 79 	0.79625 	 -1.30375 	 -0.56 	29.2 	
-54.473 	 -194.224 	 999.363 	-3 	 -10 	 79 	0.76125 	 -1.19875 	 -0.49 	29.2 	
-52.521 	 -194.651 	 1000.89 	-2 	 -10 	 79 	0.77 	 -1.18125 	 -0.63 	29.2 	
-54.29 	 -192.943 	 1002.41 	-3 	 -10 	 79 	0.79625 	 -1.14625 	 -0.7525 	29.2 	
-53.375 	 -192.272 	 1004.61 	-2 	 -10 	 79 	0.7525 	 -1.1025 	 -0.72625 	29.2 	
-52.948 	 -191.296 	 1004.3 	-2 	 -10 	 79 	0.77 	 -1.09375 	 -0.735 	29.2 	
-49.898 	 -190.137 	 1003.88 	-2 	 -10 	 79 	0.79625 	 -1.32125 	 -0.735 	29.2 	
-50.874 	 -188.856 	 1001.01 	-2 	 -10 	 79 	0.7 	 -1.18125 	 -0.665 	29.2 	
-48.251 	 -189.344 	 1001.5 	-2 	 -10 	 79 	0.595 	 -1.19 	 -0.63875 	29.2 	
-46.055 	 -186.355 	 1002.96 	-2 	 -10 	 79 	0.81375 	 -1.2425 	 -0.735 	29.2 	
-47.519 	 -186.66 	 1003.51 	-2 	 -10 	 79 	0.67375 	 -1.1725 	 -0.56 	29.2 	
-46.482 	 -186.538 	 1002.47 	-2 	 -10 	 79 	0.79625 	 -1.0675 	 -0.60375 	29.2 	
-45.872 	 -185.928 	 1004.18 	-2 	 -10 	 79 	0.74375 	 -1.12 	 -0.6475 	29.2 	
-42.944 	 -187.941 	 1006.38 	-2 	 -10 	 79 	0.69125 	 -1.155 	 -0.58625 	29.2 	
-43.371 	 -186.843 	 1004.55 	-2 	 -10 	 79 	0.805 	 -1.16375 	 -0.665 	29.2 	
-40.992 	 -186.904 	 1005.52 	-2 	 -10 	 79 	0.8225 	 -1.225 	 -0.56 	29.2 	
-42.09 	 -186.477 	 1002.17 	-2 	 -10 	 79 	0.8225 	 -1.21625 	 -0.55125 	29.2 	
-40.504 	 -187.758 	 1003.33 	-2 	 -10 	 79 	0.735 	 -1.19 	 -0.53375 	29.2 	
-39.162 	 -189.527 	 1005.34 	-2 	 -10 	 79 	0.74375 	 -1.12 	 -0.595 	29.2 	
-42.151 	 -188.673 	 1006.01 	-2 	 -10 	 79 	0.69125 	 -1.00625 	 -0.5775 	29.2 	
-40.992 	 -188.978 	 1004 	-2 	 -10 	 79 	0.805 	 -1.05875 	 -0.6475 	29.2 	
-41.419 	 -188.734 	 1004.37 	-2 	 -10 	 79 	0.67375 	 -1.1375 	 -0.65625 	29.2 	
-41.053 	 -192.394 	 1004.24 	-2 	 -10 	 79 	0.4375 	 -1.04125 	 -0.62125 	29.2 	
-43.615 	 -191.174 	 1002.23 	-2 	 -10 	 79 	0.5775 	 -1.155 	 -0.62125 	29.2 	
-41.175 	 -191.845 	 1003.39 	-2 	 -10 	 79 	0.63875 	 -1.09375 	 -0.65625 	29.2 	
-40.382 	 -192.638 	 1001.92 	-2 	 -10 	 79 	0.70875 	 -1.2775 	 -0.62125 	29.2 	
-43.005 	 -193.492 	 1002.23 	-2 	 -10 	 79 	0.76125 	 -1.23375 	 -0.6475 	29.2 	
-42.822 	 -193.309 	 1001.99 	-2 	 -10 	 79 	0.74375 	 -1.16375 	 -0.63875 	29.2 	
-42.395 	 -195.017 	 1002.6 	-2 	 -10 	 79 	0.5425 	 -1.1375 	 -0.60375 	29.2 	
-42.578 	 -192.821 	 1002.47 	-2 	 -10 	 79 	0.60375 	 -1.085 	 -0.6825 	29.2 	
-43.92 	 -194.59 	 1001.8 	-2 	 -10 	 79 	0.81375 	 -1.14625 	 -0.63875 	29.2 	
-44.408 	 -195.505 	 1001.8 	-2 	 -11 	 79 	0.805 	 -1.18125 	 -0.63 	29.2 	
-42.517 	 -194.651 	 1000.03 	-2 	 -11 	 79 	0.79625 	 -1.14625 	 -0.55125 	29.2 	
-45.201 	 -195.566 	 1000.89 	-2 	 -11 	 79 	0.86625 	 -1.19875 	 -0.5775 	29.2 	
-45.323 	 -194.834 	 1001.38 	-2 	 -10 	 79 	0.69125 	 -1.1725 	 -0.7525 	29.2 	
-44.469 	 -195.078 	 1002.6 	-2 	 -11 	 79 	0.6825 	 -1.09375 	 -0.60375 	29.2 	
-44.713 	 -194.651 	 1003.82 	-2 	 -10 	 79 	0.7 	 -1.18125 	 -0.62125 	29.2 	
-44.53 	 -196.115 	 1002.47 	-2 	 -11 	 79 	0.77875 	 -1.19875 	 -0.44625 	29.2 	
-46.116 	 -195.322 	 1001.38 	-2 	 -11 	 79 	0.7175 	 -1.19875 	 -0.5425 	29.2 	
-46.116 	 -194.956 	 1002.78 	-2 	 -10 	 79 	0.72625 	 -1.26875 	 -0.63875 	29.2 	
-44.53 	 -193.98 	 1001.38 	-2 	 -10 	 79 	0.77875 	 -1.19875 	 -0.6475 	29.2 	
-46.116 	 -192.76 	 1002.72 	-2 	 -10 	 79 	0.91 	 -1.07625 	 -0.67375 	29.2 	
-45.811 	 -193.614 	 1003.57 	-2 	 -10 	 79 	0.7525 	 -1.09375 	 -0.60375 	29.2 	
-46.36 	 -194.285 	 1003.27 	-2 	 -10 	 79 	0.805 	 -1.05875 	 -0.49875 	29.2 	
-47.214 	 -193.675 	 1001.5 	-2 	 -10 	 79 	0.79625 	 -1.225 	 -0.49875 	29.2 	
-47.824 	 -192.516 	 1003.39 	-2 	 -10 	 79 	0.83125 	 -1.1375 	 -0.595 	29.2 	
-48.495 	 -192.15 	 1001.25 	-2 	 -10 	 79 	0.90125 	 -1.14625 	 -0.525 	29.2 	
-47.336 	 -191.906 	 1004.24 	-2 	 -10 	 79 	0.74375 	 -1.1375 	 -0.49 	29.2 	
-47.214 	 -191.357 	 1002.9 	-2 	 -10 	 79 	0.69125 	 -1.19875 	 -0.5425 	29.3 	
-44.835 	 -192.15 	 1001.5 	-2 	 -10 	 79 	0.7875 	 -1.07625 	 -0.51625 	29.3 	
-47.58 	 -191.601 	 1001.99 	-2 	 -10 	 79 	0.74375 	 -1.1725 	 -0.55125 	29.3 	
-45.323 	 -191.662 	 1001.99 	-2 	 -10 	 79 	0.74375 	 -1.1725 	 -0.4725 	29.3 	
-44.225 	 -190.747 	 1002.84 	-2 	 -10 	 79 	0.6125 	 -1.2075 	 -0.5425 	29.3 	
-44.896 	 -189.588 	 1002.05 	-2 	 -10 	 79 	0.72625 	 -0.98 	 -0.525 	29.3 	
-44.896 	 -190.564 	 1002.96 	-2 	 -10 	 79 	0.8225 	 -1.07625 	 -0.56875 	29.3 	
-44.896 	 -190.259 	 1001.99 	-2 	 -10 	 79 	0.77 	 -1.04125 	 -0.56 	29.3 	
-43.737 	 -190.869 	 1001.68 	-2 	 -10 	 79 	0.63875 	 -1.12 	 -0.5775 	29.2 	
-41.846 	 -188.978 	 1003.39 	-2 	 -10 	 79 	0.70875 	 -1.225 	 -0.51625 	29.2 	
-42.456 	 -189.893 	 1003.21 	-2 	 -10 	 79 	0.77 	 -1.1725 	 -0.55125 	29.2 	
-42.517 	 -189.344 	 1004.91 	-2 	 -10 	 79 	0.875 	 -1.155 	 -0.56875 	29.2 	
-41.907 	 -192.455 	 1003.33 	-2 	 -10 	 79 	0.77875 	 -1.1375 	 -0.49875 	29.2 	
-42.822 	 -190.93 	 1002.84 	-2 	 -10 	 79 	0.8575 	 -1.26 	 -0.525 	29.2 	
-41.419 	 -190.076 	 1003.21 	-2 	 -10 	 79 	0.77875 	 -1.155 	 -0.5775 	29.2 	
-41.907 	 -190.381 	 1004.91 	-2 	 -10 	 79 	0.875 	 -1.05875 	 -0.44625 	29.2 	
-42.029 	 -190.137 	 1001.38 	-2 	 -10 	 79 	0.84 	 -1.225 	 -0.55125 	29.2 	
-41.236 	 -189.344 	 1002.96 	-2 	 -10 	 79 	0.86625 	 -1.1725 	 -0.5425 	29.2 	
-41.602 	 -190.198 	 1003.14 	-2 	 -10 	 79 	0.70875 	 -1.00625 	 -0.51625 	29.2 	
-43.615 	 -189.466 	 1004.12 	-2 	 -10 	 79 	0.72625 	 -1.2075 	 -0.49 	29.2 	
-41.724 	 -191.662 	 1003.57 	-2 	 -10 	 79 	0.77 	 -1.30375 	 -0.6125 	29.2 	
-43.92 	 -191.845 	 1001.92 	-2 	 -10 	 79 	0.79625 	 -1.12 	 -0.49875 	29.2 	
-44.896 	 -191.479 	 1002.29 	-2 	 -10 	 79 	0.76125 	 -1.2075 	 -0.41125 	29.2 	
-44.53 	 -189.893 	 1001.74 	-2 	 -10 	 79 	0.735 	 -1.1375 	 -0.5425 	29.2 	
-43.127 	 -191.357 	 1001.31 	-2 	 -10 	 79 	0.805 	 -0.9975 	 -0.4725 	29.2 	
-44.53 	 -193.431 	 1002.53 	-2 	 -10 	 79 	0.74375 	 -1.1725 	 -0.4725 	29.2 	
-44.713 	 -192.516 	 1004.18 	-2 	 -10 	 79 	0.67375 	 -1.1725 	 -0.48125 	29.2 	
-45.994 	 -191.113 	 1001.38 	-2 	 -10 	 79 	0.69125 	 -1.12875 	 -0.48125 	29.2 	
-44.164 	 -191.357 	 1002.23 	-2 	 -10 	 79 	0.875 	 -1.05875 	 -0.525 	29.2 	
-45.384 	 -191.113 	 1001.99 	-2 	 -10 	 79 	0.83125 	 -1.12875 	 -0.46375 	29.2 	
-45.872 	 -192.272 	 1000.95 	-2 	 -10 	 79 	0.90125 	 -1.19 	 -0.5425 	29.2 	
-46.482 	 -190.32 	 1004.06 	-2 	 -10 	 79 	0.77875 	 -1.1725 	 -0.51625 	29.2 	
-44.652 	 -190.381 	 1002.47 	-2 	 -10 	 79 	0.6825 	 -1.33875 	 -0.525 	29.2 	
-46.665 	 -190.869 	 1003.45 	-2 	 -10 	 79 	0.69125 	 -1.32125 	 -0.42 	29.2 	
-44.408 	 -190.625 	 1003.88 	-2 	 -10 	 79 	0.74375 	 -1.295 	 -0.44625 	29.2 	
-43.371 	 -190.564 	 1002.96 	-2 	 -10 	 79 	0.805 	 -1.21625 	 -0.455 	29.2 	
-43.676 	 -191.967 	 1001.07 	-2 	 -10 	 79 	0.6475 	 -1.16375 	 -0.56875 	29.2 	
-45.445 	 -192.15 	 1002.72 	-2 	 -10 	 79 	0.77875 	 -1.085 	 -0.4375 	29.2 	
-44.713 	 -191.54 	 1003.08 	-2 	 -10 	 79 	0.76125 	 -1.085 	 -0.42 	29.2 	
-44.713 	 -191.906 	 1002.23 	-2 	 -10 	 79 	0.77 	 -1.0675 	 -0.525 	29.2 	
-45.018 	 -190.625 	 1004.06 	-2 	 -10 	 79 	0.7875 	 -1.19 	 -0.51625 	29.2 	
-46.482 	 -192.638 	 1004.18 	-2 	 -10 	 79 	0.8225 	 -1.1725 	 -0.48125 	29.2 	
-44.652 	 -194.224 	 1002.72 	-2 	 -10 	 79 	0.84875 	 -1.2425 	 -0.49875 	29.2 	
-46.848 	 -193.98 	 1001.56 	-2 	 -10 	 79 	0.7 	 -1.1375 	 -0.49 	29.2 	
-46.543 	 -195.2 	 1001.99 	-2 	 -11 	 79 	0.72625 	 -1.00625 	 -0.5775 	29.2 	
-47.336 	 -194.834 	 1003.45 	-2 	 -10 	 79 	0.8225 	 -1.12875 	 -0.58625 	29.2 	
-48.739 	 -194.529 	 1001.19 	-2 	 -10 	 79 	0.62125 	 -1.0675 	 -0.5075 	29.2 	
-50.935 	 -194.59 	 1000.28 	-2 	 -10 	 79 	0.63 	 -1.19 	 -0.4375 	29.2 	
-53.192 	 -195.139 	 999.424 	-2 	 -11 	 79 	0.875 	 -1.25125 	 -0.48125 	29.2 	
-52.948 	 -193.187 	 998.57 	-2 	 -10 	 79 	0.8225 	 -1.225 	 -0.49 	29.2 	
-52.582 	 -197.03 	 1003.45 	-2 	 -11 	 79 	0.735 	 -1.365 	 -0.53375 	29.2 	
-53.985 	 -200.934 	 1005.65 	-3 	 -11 	 78 	0.63875 	 -1.18125 	 -0.56 	29.2 	
-53.436 	 -195.688 	 1007.23 	-2 	 -10 	 79 	0.7175 	 -1.09375 	 -0.7 	29.2 	
-53.009 	 -196.176 	 1006.5 	-2 	 -11 	 79 	0.5425 	 -1.12 	 -0.665 	29.2 	
-50.264 	 -199.775 	 1000.4 	-2 	 -11 	 78 	0.77 	 -1.23375 	 -0.67375 	29.2 	
-47.946 	 -190.137 	 996.984 	-2 	 -10 	 79 	0.98 	 -1.12875 	 -0.62125 	29.2 	
-49.654 	 -191.54 	 994.971 	-2 	 -10 	 79 	0.69125 	 -1.0325 	 -0.5075 	29.2 	
-49.044 	 -198.555 	 997.228 	-2 	 -11 	 78 	0.56875 	 -1.21625 	 -0.56875 	29.2 	
-46.482 	 -191.784 	 998.265 	-2 	 -10 	 79 	0.60375 	 -1.23375 	 -0.665 	29.2 	
-43.615 	 -189.161 	 1007.17 	-2 	 -10 	 79 	0.55125 	 -1.26875 	 -0.67375 	29.2 	
-44.835 	 -199.592 	 1012.6 	-2 	 -11 	 79 	0.49 	 -1.085 	 -0.56875 	29.2 	
-44.652 	 -194.346 	 1009.67 	-2 	 -10 	 79 	1.015 	 -0.93625 	 -0.6125 	29.2 	
-44.469 	 -186.416 	 1004 	-2 	 -10 	 79 	0.84 	 -1.1025 	 -0.62125 	29.2 	
-41.663 	 -190.747 	 996.984 	-2 	 -10 	 79 	0.74375 	 -1.12 	 -0.56 	29.2 	
-41.48 	 -190.686 	 993.934 	-2 	 -10 	 79 	0.7875 	 -1.12 	 -0.5425 	29.2 	
-40.626 	 -184.159 	 998.936 	-2 	 -10 	 79 	0.72625 	 -1.23375 	 -0.51625 	29.2 	
-41.602 	 -189.893 	 1003.63 	-2 	 -10 	 79 	0.53375 	 -1.28625 	 -0.5425 	29.2 	
-41.236 	 -193.675 	 1008.02 	-2 	 -10 	 79 	0.56 	 -1.19 	 -0.55125 	29.2 	
-40.382 	 -189.832 	 1008.45 	-2 	 -10 	 79 	0.805 	 -1.1025 	 -0.525 	29.2 	
-40.443 	 -189.1 	 1009.31 	-2 	 -10 	 79 	0.63875 	 -1.09375 	 -0.55125 	29.2 	
-42.7 	 -190.747 	 1006.01 	-2 	 -10 	 79 	0.83125 	 -1.015 	 -0.5075 	29.2 	
-44.286 	 -186.66 	 1000.34 	-2 	 -10 	 79 	0.875 	 -1.12875 	 -0.5775 	29.2 	
-43.432 	 -185.684 	 994.483 	-2 	 -10 	 79 	0.77 	 -1.155 	 -0.525 	29.2 	
-41.724 	 -189.1 	 996.496 	-2 	 -10 	 79 	0.63875 	 -1.26 	 -0.46375 	29.2 	
-44.469 	 -189.039 	 1002.72 	-2 	 -10 	 79 	0.67375 	 -1.21625 	 -0.53375 	29.2 	
-43.92 	 -190.32 	 1006.74 	-2 	 -10 	 79 	0.67375 	 -1.16375 	 -0.56 	29.2 	
-43.92 	 -190.686 	 1008.39 	-2 	 -10 	 79 	0.53375 	 -1.14625 	 -0.53375 	29.2 	
-45.628 	 -193.004 	 1007.17 	-2 	 -10 	 79 	0.65625 	 -1.04125 	 -0.53375 	29.2 	
-46.543 	 -187.88 	 1002.23 	-2 	 -10 	 79 	0.91875 	 -1.015 	 -0.62125 	29.2 	
-44.042 	 -189.954 	 1000.58 	-2 	 -10 	 79 	0.84875 	 -1.1025 	 -0.58625 	29.2 	
-43.798 	 -191.479 	 998.631 	-2 	 -10 	 79 	0.7525 	 -1.0675 	 -0.665 	29.2 	
-43.127 	 -192.699 	 999.607 	-2 	 -10 	 79 	0.805 	 -1.1725 	 -0.65625 	29.2 	
-45.872 	 -192.455 	 1002.96 	-2 	 -10 	 79 	0.72625 	 -1.1375 	 -0.65625 	29.2 	
-44.896 	 -194.346 	 1007.9 	-2 	 -10 	 79 	0.63 	 -0.9975 	 -0.65625 	29.2 	
-45.933 	 -196.054 	 1005.89 	-2 	 -11 	 79 	0.6475 	 -1.2425 	 -0.58625 	29.2 	
-43.493 	 -193.126 	 1005.04 	-2 	 -10 	 79 	0.8225 	 -1.19 	 -0.6475 	29.2 	
-43.981 	 -193.431 	 1001.56 	-2 	 -10 	 79 	0.70875 	 -1.1375 	 -0.69125 	29.2 	
-45.75 	 -194.346 	 999.485 	-2 	 -10 	 79 	0.77 	 -1.225 	 -0.65625 	29.2 	
-45.628 	 -191.845 	 998.448 	-2 	 -10 	 79 	0.91 	 -1.1375 	 -0.60375 	29.2 	
-44.225 	 -192.394 	 1002.05 	-2 	 -10 	 79 	0.7 	 -1.2075 	 -0.595 	29.2 	
-44.103 	 -196.054 	 1000.77 	-2 	 -11 	 79 	0.5075 	 -1.1375 	 -0.56 	29.2 	
-44.469 	 -193.004 	 1004.61 	-2 	 -10 	 79 	0.665 	 -1.18125 	 -0.4375 	29.2 	
-46.482 	 -194.041 	 1005.95 	-2 	 -10 	 79 	0.49 	 -1.12875 	 -0.49875 	29.2 	
-46.299 	 -195.322 	 1005.95 	-2 	 -10 	 79 	0.5425 	 -1.085 	 -0.5075 	29.2 	
-46.97 	 -194.895 	 1003.27 	-2 	 -10 	 79 	0.86625 	 -1.155 	 -0.4375 	29.2 	
-45.75 	 -192.455 	 1000.03 	-2 	 -10 	 79 	0.70875 	 -1.19 	 -0.5075 	29.2 	
-46.238 	 -193.248 	 997.96 	-2 	 -10 	 79 	0.7175 	 -1.23375 	 -0.56 	29.2 	
-49.532 	 -194.834 	 1002.11 	-2 	 -10 	 79 	0.74375 	 -1.04125 	 -0.49875 	29.2 	
-46.543 	 -193.248 	 1002.53 	-2 	 -10 	 79 	0.77875 	 -1.1725 	 -0.35 	29.2 	
-47.031 	 -194.895 	 1004.61 	-2 	 -10 	 79 	0.67375 	 -1.2075 	 -0.42 	29.2 	
-47.397 	 -194.712 	 1006.32 	-2 	 -10 	 79 	0.58625 	 -1.19 	 -0.44625 	29.2 	
-46.97 	 -193.492 	 1001.86 	-2 	 -10 	 79 	0.63875 	 -1.19 	 -0.455 	29.2 	
-44.408 	 -191.784 	 1002.6 	-2 	 -10 	 79 	0.63875 	 -1.015 	 -0.55125 	29.2 	
-44.286 	 -191.601 	 1000.7 	-2 	 -10 	 79 	0.65625 	 -1.11125 	 -0.56 	29.2 	
-43.92 	 -191.784 	 1003.39 	-2 	 -10 	 79 	0.70875 	 -1.16375 	 -0.56875 	29.3 	
-43.676 	 -190.015 	 1003.57 	-2 	 -10 	 79 	0.65625 	 -1.1725 	 -0.53375 	29.3 	
-41.907 	 -190.076 	 1004.61 	-2 	 -10 	 79 	0.76125 	 -1.14625 	 -0.49 	29.3 	
-40.748 	 -190.869 	 1005.22 	-2 	 -10 	 79 	0.665 	 -1.225 	 -0.49875 	29.3 	
-41.053 	 -189.466 	 1004.18 	-2 	 -10 	 79 	0.72625 	 -1.1025 	 -0.55125 	29.3 	
-39.467 	 -191.174 	 1002.41 	-2 	 -10 	 79 	0.7175 	 -1.16375 	 -0.62125 	29.3 	
-38.796 	 -188.49 	 1002.29 	-2 	 -10 	 79 	0.69125 	 -1.2075 	 -0.51625 	29.3 	
-37.759 	 -189.771 	 1002.6 	-2 	 -10 	 79 	0.84875 	 -1.23375 	 -0.525 	29.3 	
-38.247 	 -189.344 	 1003.14 	-2 	 -10 	 79 	0.62125 	 -1.19 	 -0.39375 	29.2 	
-37.149 	 -189.527 	 1004.3 	-2 	 -10 	 79 	0.735 	 -1.19875 	 -0.5075 	29.2 	
-37.393 	 -188.612 	 1002.78 	-2 	 -10 	 79 	0.7175 	 -1.1025 	 -0.48125 	29.2 	
-35.746 	 -189.039 	 1004.43 	-2 	 -10 	 79 	0.6825 	 -1.1375 	 -0.55125 	29.2 	
-37.698 	 -189.283 	 1003.57 	-2 	 -10 	 79 	0.63 	 -1.23375 	 -0.5425 	29.2 	
-39.162 	 -188.368 	 1001.56 	-2 	 -10 	 79 	0.8225 	 -1.16375 	 -0.525 	29.2 	
-37.942 	 -190.503 	 1002.66 	-2 	 -10 	 79 	0.84 	 -1.12 	 -0.41125 	29.2 	
-40.26 	 -190.442 	 1001.68 	-2 	 -10 	 79 	0.70875 	 -1.1375 	 -0.4725 	29.2 	
-40.504 	 -192.577 	 1003.63 	-2 	 -10 	 79 	0.8225 	 -1.1025 	 -0.48125 	29.2 	
-42.944 	 -192.272 	 1003.57 	-2 	 -10 	 79 	0.84875 	 -1.015 	 -0.385 	29.2 	
-43.066 	 -193.309 	 1001.74 	-2 	 -10 	 79 	0.58625 	 -1.04125 	 -0.41125 	29.2 	
-46.055 	 -191.723 	 1001.74 	-2 	 -10 	 79 	0.665 	 -1.09375 	 -0.44625 	29.2 	
-47.092 	 -194.041 	 1002.23 	-2 	 -10 	 79 	0.8575 	 -1.09375 	 -0.455 	29.2 	
-49.837 	 -194.163 	 999.424 	-2 	 -10 	 79 	0.72625 	 -1.2075 	 -0.4025 	29.2 	
-50.142 	 -196.42 	 998.814 	-2 	 -11 	 79 	0.56 	 -1.09375 	 -0.385 	29.2 	
-51.972 	 -196.969 	 1001.19 	-2 	 -11 	 79 	0.665 	 -1.085 	 -0.525 	29.2 	
-54.351 	 -196.603 	 1001.92 	-3 	 -11 	 79 	0.77 	 -1.18125 	 -0.49875 	29.2 	
-54.534 	 -197.152 	 1001.86 	-3 	 -11 	 79 	0.945 	 -1.19875 	 -0.49875 	29.2 	
-54.778 	 -197.579 	 1000.95 	-3 	 -11 	 79 	0.70875 	 -1.09375 	 -0.48125 	29.2 	
-55.937 	 -196.969 	 999.241 	-3 	 -11 	 79 	0.72625 	 -1.19 	 -0.5075 	29.2 	
-55.876 	 -198.799 	 1001.13 	-3 	 -11 	 78 	0.74375 	 -1.09375 	 -0.60375 	29.2 	
-56.303 	 -198.616 	 999.363 	-3 	 -11 	 78 	0.79625 	 -1.12875 	 -0.525 	29.2 	
-55.388 	 -198.25 	 999.912 	-3 	 -11 	 78 	0.58625 	 -1.0675 	 -0.455 	29.2 	
-55.022 	 -195.444 	 1001.44 	-3 	 -11 	 79 	0.7525 	 -1.0675 	 -0.6125 	29.2 	
-54.351 	 -195.078 	 1003.27 	-3 	 -10 	 79 	0.735 	 -1.1725 	 -0.6825 	29.2 	
-54.534 	 -194.712 	 1003.02 	-3 	 -10 	 79 	0.60375 	 -1.1375 	 -0.63 	29.2 	
-53.436 	 -194.773 	 1002.78 	-2 	 -10 	 79 	0.76125 	 -1.0325 	 -0.62125 	29.2 	
-49.776 	 -194.346 	 1001.99 	-2 	 -10 	 79 	0.7875 	 -1.07625 	 -0.5775 	29.2 	
-51.423 	 -193.797 	 1003.27 	-2 	 -10 	 79 	0.79625 	 -1.23375 	 -0.49 	29.2 	
-50.569 	 -190.93 	 1002.17 	-2 	 -10 	 79 	0.77 	 -1.16375 	 -0.5775 	29.2 	
-49.166 	 -191.052 	 1002.96 	-2 	 -10 	 79 	0.81375 	 -1.09375 	 -0.60375 	29.2 	
-48.19 	 -192.394 	 1003.08 	-2 	 -10 	 79 	0.6825 	 -1.28625 	 -0.60375 	29.2 	
-47.397 	 -191.113 	 1002.84 	-2 	 -10 	 79 	0.5775 	 -1.2075 	 -0.63875 	29.2 	
-46.238 	 -190.625 	 1002.78 	-2 	 -10 	 79 	0.51625 	 -1.155 	 -0.76125 	29.2 	
-44.774 	 -189.832 	 1003.57 	-2 	 -10 	 79 	0.6825 	 -1.07625 	 -0.595 	29.2 	
-47.031 	 -188.124 	 1004.49 	-2 	 -10 	 79 	0.65625 	 -1.1025 	 -0.5775 	29.2 	
-46.787 	 -190.564 	 1004.06 	-2 	 -10 	 79 	0.63 	 -1.19875 	 -0.56 	29.2 	
-46.482 	 -189.954 	 1003.51 	-2 	 -10 	 79 	0.76125 	 -1.225 	 -0.56 	29.2 	
-43.737 	 -188.368 	 1002.96 	-2 	 -10 	 79 	0.8575 	 -1.14625 	 -0.56 	29.2 	
-45.323 	 -186.782 	 1002.66 	-2 	 -10 	 79 	0.74375 	 -1.18125 	 -0.6125 	29.2 	
-44.103 	 -187.697 	 1001.86 	-2 	 -10 	 79 	0.63 	 -1.11125 	 -0.6125 	29.2 	
-43.432 	 -189.344 	 1004.61 	-2 	 -10 	 79 	0.65625 	 -1.18125 	 -0.5775 	29.2 	
-45.75 	 -190.259 	 1003.45 	-2 	 -10 	 79 	0.63 	 -1.18125 	 -0.56 	29.2 	
-44.408 	 -189.832 	 1003.94 	-2 	 -10 	 79 	0.63875 	 -1.0675 	 -0.56875 	29.2 	
-43.554 	 -188.795 	 1004.61 	-2 	 -10 	 79 	0.665 	 -1.07625 	 -0.595 	29.2 	
-43.981 	 -187.88 	 1005.16 	-2 	 -10 	 79 	0.76125 	 -1.05875 	 -0.56 	29.2 	
-43.188 	 -189.405 	 1002.41 	-2 	 -10 	 79 	0.7175 	 -1.225 	 -0.56 	29.2 	
-42.273 	 -188.246 	 1001.86 	-2 	 -10 	 79 	0.60375 	 -1.21625 	 -0.5775 	29.2 	
-43.859 	 -190.747 	 1002.6 	-2 	 -10 	 79 	0.6825 	 -1.015 	 -0.6825 	29.2 	
-43.798 	 -190.198 	 1000.77 	-2 	 -10 	 79 	0.7525 	 -1.085 	 -0.77 	29.2 	
-42.334 	 -189.344 	 1002.53 	-2 	 -10 	 79 	0.63875 	 -1.32125 	 -0.665 	29.2 	
-43.249 	 -189.832 	 1003.75 	-2 	 -10 	 79 	0.7175 	 -1.11125 	 -0.62125 	29.2 	
-42.944 	 -192.15 	 1004.61 	-2 	 -10 	 79 	0.79625 	 -1.26 	 -0.65625 	29.2 	
-43.066 	 -190.808 	 1003.14 	-2 	 -10 	 79 	0.735 	 -1.11125 	 -0.67375 	29.2 	
-44.286 	 -191.784 	 1001.44 	-2 	 -10 	 79 	0.62125 	 -1.07625 	 -0.74375 	29.2 	
-43.127 	 -191.113 	 1002.66 	-2 	 -10 	 79 	0.5775 	 -1.19875 	 -0.65625 	29.2 	
-44.042 	 -191.601 	 1001.62 	-2 	 -10 	 79 	0.56 	 -1.09375 	 -0.58625 	29.2 	
-43.31 	 -193.37 	 1003.14 	-2 	 -10 	 79 	0.6125 	 -1.16375 	 -0.65625 	29.2 	
-44.957 	 -191.906 	 1004.3 	-2 	 -10 	 79 	0.6475 	 -1.09375 	 -0.665 	29.2 	
-43.432 	 -193.126 	 1000.83 	-2 	 -10 	 79 	0.63875 	 -1.1375 	 -0.53375 	29.2 	
-45.079 	 -194.102 	 1004.06 	-2 	 -10 	 79 	0.91875 	 -1.1025 	 -0.65625 	29.2 	
-45.384 	 -191.784 	 1003.69 	-2 	 -10 	 79 	0.63875 	 -1.19875 	 -0.62125 	29.2 	
-45.872 	 -193.858 	 1001.25 	-2 	 -10 	 79 	0.7875 	 -1.12 	 -0.5425 	29.2 	
-45.445 	 -193.37 	 1000.58 	-2 	 -10 	 79 	0.76125 	 -1.19875 	 -0.55125 	29.2 	
-46.604 	 -194.529 	 1000.64 	-2 	 -10 	 79 	0.735 	 -1.16375 	 -0.63875 	29.2 	
-45.75 	 -191.662 	 1001.25 	-2 	 -10 	 79 	0.76125 	 -1.155 	 -0.55125 	29.2 	
-45.445 	 -194.59 	 1002.29 	-2 	 -10 	 79 	0.875 	 -1.16375 	 -0.51625 	29.2 	
-45.14 	 -192.638 	 1002.53 	-2 	 -10 	 79 	0.74375 	 -1.16375 	 -0.53375 	29.2 	
-45.872 	 -194.712 	 1004.85 	-2 	 -10 	 79 	0.7875 	 -1.18125 	 -0.5075 	29.2 	
-48.129 	 -195.322 	 1004.06 	-2 	 -10 	 79 	0.83125 	 -1.1375 	 -0.595 	29.2 	
-46.604 	 -193.309 	 1001.74 	-2 	 -10 	 79 	0.84 	 -1.2075 	 -0.65625 	29.2 	
-47.458 	 -193.492 	 1000.89 	-2 	 -10 	 79 	0.63 	 -1.155 	 -0.48125 	29.2 	
-45.811 	 -192.211 	 999.424 	-2 	 -10 	 79 	0.67375 	 -1.30375 	 -0.65625 	29.2 	
-46.238 	 -194.224 	 1002.72 	-2 	 -10 	 79 	0.7525 	 -1.19875 	 -0.5075 	29.2 	
-45.018 	 -194.102 	 1001.86 	-2 	 -10 	 79 	0.67375 	 -1.155 	 -0.42875 	29.2 	
-44.774 	 -194.59 	 1002.23 	-2 	 -10 	 79 	0.58625 	 -1.33 	 -0.56875 	29.2 	
-43.798 	 -194.468 	 1001.5 	-2 	 -10 	 79 	0.84 	 -1.28625 	 -0.56875 	29.2 	
-44.835 	 -194.651 	 1004.37 	-2 	 -10 	 79 	0.88375 	 -1.05875 	 -0.6125 	29.2 	
-43.066 	 -194.285 	 1001.74 	-2 	 -10 	 79 	0.875 	 -1.09375 	 -0.60375 	29.2 	
-43.31 	 -193.736 	 1000.64 	-2 	 -10 	 79 	0.7175 	 -1.3125 	 -0.6125 	29.2 	
-41.297 	 -191.113 	 1001.44 	-2 	 -10 	 79 	0.805 	 -1.28625 	 -0.5775 	29.3 	
-41.419 	 -194.224 	 1001.31 	-2 	 -10 	 79 	0.7 	 -1.1725 	 -0.4375 	29.3 	
-41.907 	 -193.187 	 1002.6 	-2 	 -10 	 79 	0.56875 	 -1.21625 	 -0.5075 	29.3 	
-42.517 	 -192.211 	 1003.45 	-2 	 -10 	 79 	0.735 	 -1.0325 	 -0.525 	29.3 	
-41.175 	 -192.272 	 1003.21 	-2 	 -10 	 79 	0.74375 	 -1.05 	 -0.49875 	29.3 	
-39.955 	 -191.113 	 1003.02 	-2 	 -10 	 79 	0.805 	 -1.11125 	 -0.48125 	29.3 	
-41.907 	 -190.32 	 1002.47 	-2 	 -10 	 79 	0.8575 	 -1.12 	 -0.56 	29.3 	
-41.724 	 -189.893 	 1000.64 	-2 	 -10 	 79 	0.74375 	 -1.1025 	 -0.56 	29.3 	
-41.358 	 -189.649 	 1001.92 	-2 	 -10 	 79 	0.53375 	 -1.18125 	 -0.525 	29.2 	
-43.188 	 -191.784 	 1003.33 	-2 	 -10 	 79 	0.595 	 -1.16375 	 -0.56875 	29.2 	
-43.554 	 -190.259 	 1003.02 	-2 	 -10 	 79 	0.77 	 -1.33 	 -0.51625 	29.2 	
-43.493 	 -190.076 	 1003.75 	-2 	 -10 	 79 	0.72625 	 -1.225 	 -0.5075 	29.2 	
-44.225 	 -190.869 	 1003.02 	-2 	 -10 	 79 	0.665 	 -1.12 	 -0.53375 	29.2 	
-44.164 	 -190.93 	 1001.5 	-2 	 -10 	 79 	0.6475 	 -1.09375 	 -0.455 	29.2 	
-44.103 	 -191.235 	 1001.56 	-2 	 -10 	 79 	0.70875 	 -1.07625 	 -0.51625 	29.2 	
-46.543 	 -190.442 	 1001.8 	-2 	 -10 	 79 	0.67375 	 -1.19 	 -0.41125 	29.2 	
-47.458 	 -191.357 	 1000.22 	-2 	 -10 	 79 	0.665 	 -1.1725 	 -0.60375 	29.2 	
-47.824 	 -190.686 	 1002.9 	-2 	 -10 	 79 	0.77875 	 -1.04125 	 -0.5425 	29.2 	
-46.055 	 -190.808 	 1001.68 	-2 	 -10 	 79 	0.6475 	 -1.1725 	 -0.5775 	29.2 	
-46.97 	 -190.747 	 1002.17 	-2 	 -10 	 79 	0.76125 	 -1.19 	 -0.49 	29.2 	
-48.251 	 -189.71 	 1001.01 	-2 	 -10 	 79 	0.6125 	 -1.2775 	 -0.525 	29.2 	
-46.36 	 -190.015 	 1001.07 	-2 	 -10 	 79 	0.6475 	 -1.2425 	 -0.595 	29.2 	
-46.848 	 -189.1 	 1003.51 	-2 	 -10 	 79 	0.83125 	 -1.2425 	 -0.60375 	29.2 	
-45.689 	 -190.808 	 1001.86 	-2 	 -10 	 79 	0.84 	 -1.085 	 -0.49875 	29.2 	
-45.994 	 -190.808 	 1003.39 	-2 	 -10 	 79 	0.7 	 -1.1375 	 -0.49875 	29.2 	
-45.567 	 -189.588 	 1002.96 	-2 	 -10 	 79 	0.805 	 -1.11125 	 -0.49 	29.2 	
-44.835 	 -191.113 	 1002.47 	-2 	 -10 	 79 	0.7875 	 -1.07625 	 -0.56 	29.2 	
-46.482 	 -192.516 	 1003.21 	-2 	 -10 	 79 	0.81375 	 -1.12 	 -0.525 	29.2 	
-43.615 	 -190.564 	 1003.57 	-2 	 -10 	 79 	0.72625 	 -1.23375 	 -0.49875 	29.2 	
-45.628 	 -190.991 	 1000.89 	-2 	 -10 	 79 	0.77 	 -1.1725 	 -0.4375 	29.2 	
-43.493 	 -192.394 	 1002.66 	-2 	 -10 	 79 	0.6475 	 -1.1375 	 -0.42875 	29.2 	
-42.944 	 -189.405 	 1003.75 	-2 	 -10 	 79 	0.48125 	 -1.16375 	 -0.44625 	29.2 	
-42.09 	 -191.723 	 1004.06 	-2 	 -10 	 79 	0.735 	 -1.18125 	 -0.4725 	29.2 	
-42.822 	 -192.577 	 1003.08 	-2 	 -10 	 79 	0.76125 	 -1.19875 	 -0.44625 	29.2 	
-44.164 	 -192.333 	 1001.86 	-2 	 -10 	 79 	0.70875 	 -1.2075 	 -0.48125 	29.2 	
-43.554 	 -193.004 	 1001.92 	-2 	 -10 	 79 	0.67375 	 -1.16375 	 -0.48125 	29.2 	
-41.541 	 -191.54 	 1001.07 	-2 	 -10 	 79 	0.67375 	 -1.12 	 -0.42875 	29.2 	
-42.212 	 -193.309 	 1002.66 	-2 	 -10 	 79 	0.49 	 -1.05 	 -0.44625 	29.2 	
-45.689 	 -193.187 	 1003.08 	-2 	 -10 	 79 	0.665 	 -1.12 	 -0.5775 	29.2 	
-46.421 	 -193.553 	 1003.21 	-2 	 -10 	 79 	0.90125 	 -1.05 	 -0.55125 	29.2 	
-46.787 	 -193.858 	 1001.25 	-2 	 -10 	 79 	0.8575 	 -1.155 	 -0.46375 	29.2 	
-48.8 	 -195.322 	 1004.67 	-2 	 -10 	 79 	0.8575 	 -1.09375 	 -0.5425 	29.2 	
-47.885 	 -193.919 	 1002.11 	-2 	 -10 	 79 	0.60375 	 -1.16375 	 -0.65625 	29.2 	
-48.434 	 -194.163 	 1003.27 	-2 	 -10 	 79 	0.7175 	 -1.32125 	 -0.51625 	29.2 	
-49.776 	 -194.529 	 1001.01 	-2 	 -10 	 79 	0.62125 	 -1.12875 	 -0.55125 	29.2 	
-51.057 	 -194.346 	 1000.52 	-2 	 -10 	 79 	0.6475 	 -1.07625 	 -0.63 	29.2 	
-48.434 	 -195.078 	 1000.95 	-2 	 -11 	 79 	0.77875 	 -1.2425 	 -0.595 	29.2 	
-50.752 	 -194.346 	 1002.96 	-2 	 -10 	 79 	0.63875 	 -1.2775 	 -0.6125 	29.2 	
-50.569 	 -195.322 	 1001.07 	-2 	 -11 	 79 	0.76125 	 -1.09375 	 -0.63875 	29.2 	
-49.959 	 -196.115 	 1002.84 	-2 	 -11 	 79 	0.55125 	 -1.26875 	 -0.6475 	29.2 	
-50.569 	 -194.224 	 1001.44 	-2 	 -10 	 79 	0.70875 	 -1.30375 	 -0.595 	29.2 	
-48.251 	 -194.956 	 1001.56 	-2 	 -11 	 79 	0.6475 	 -1.23375 	 -0.595 	29.2 	
-48.922 	 -193.187 	 1001.38 	-2 	 -10 	 79 	0.735 	 -1.23375 	 -0.6125 	29.2 	
-49.166 	 -195.2 	 1002.29 	-2 	 -11 	 79 	0.72625 	 -1.1725 	 -0.69125 	29.2 	
-48.312 	 -193.248 	 1000.83 	-2 	 -10 	 79 	0.48125 	 -1.25125 	 -0.63875 	29.2 	
-46.726 	 -192.272 	 1003.33 	-2 	 -10 	 79 	0.7525 	 -1.12 	 -0.5775 	29.2 	
-46.055 	 -191.113 	 1003.21 	-2 	 -10 	 79 	0.805 	 -1.14625 	 -0.63875 	29.2 	
-46.787 	 -189.954 	 1001.56 	-2 	 -10 	 79 	0.7 	 -1.19 	 -0.6475 	29.2 	
-45.811 	 -191.54 	 1002.96 	-2 	 -10 	 79 	0.6125 	 -1.3125 	 -0.72625 	29.2 	
-45.75 	 -191.723 	 1001.92 	-2 	 -10 	 79 	0.805 	 -1.26875 	 -0.62125 	29.2 	
-45.14 	 -188.978 	 1002.41 	-2 	 -10 	 79 	0.76125 	 -1.05 	 -0.60375 	29.2 	
-43.798 	 -188.612 	 1002.96 	-2 	 -10 	 79 	0.7 	 -1.0675 	 -0.5775 	29.2 	
-43.615 	 -191.418 	 1003.33 	-2 	 -10 	 79 	0.69125 	 -1.09375 	 -0.67375 	29.2 	
-44.164 	 -189.039 	 1004.91 	-2 	 -10 	 79 	0.84875 	 -1.19875 	 -0.49875 	29.2 	
-42.395 	 -191.235 	 1004 	-2 	 -10 	 79 	0.77875 	 -1.0675 	 -0.4725 	29.2 	
-44.347 	 -191.967 	 1002.17 	-2 	 -10 	 79 	0.7 	 -1.11125 	 -0.525 	29.2 	
-42.761 	 -190.747 	 1002.29 	-2 	 -10 	 79 	0.735 	 -0.9975 	 -0.56875 	29.2 	
-44.164 	 -190.564 	 1002.05 	-2 	 -10 	 79 	0.595 	 -1.19875 	 -0.4375 	29.2 	
-44.591 	 -188.612 	 1004.06 	-2 	 -10 	 79 	0.69125 	 -1.11125 	 -0.56875 	29.2 	
-43.066 	 -192.333 	 1005.04 	-2 	 -10 	 79 	0.76125 	 -1.1725 	 -0.525 	29.2 	
-43.31 	 -190.564 	 1005.22 	-2 	 -10 	 79 	0.665 	 -1.26875 	 -0.63875 	29.2 	
-44.286 	 -192.943 	 1003.94 	-2 	 -10 	 79 	0.6825 	 -1.14625 	 -0.525 	29.2 	
-42.456 	 -192.638 	 1002.72 	-2 	 -10 	 79 	0.735 	 -1.14625 	 -0.5425 	29.2 	
-43.31 	 -192.272 	 1000.28 	-2 	 -10 	 79 	0.7525 	 -1.12875 	 -0.6125 	29.2 	
-43.005 	 -192.882 	 1002.23 	-2 	 -10 	 79 	0.67375 	 -1.085 	 -0.595 	29.2 	
-43.798 	 -193.309 	 1000.89 	-2 	 -10 	 79 	0.79625 	 -1.2425 	 -0.6475 	29.2 	
-42.456 	 -192.638 	 1002.11 	-2 	 -10 	 79 	0.74375 	 -1.21625 	 -0.51625 	29.2 	
-42.761 	 -191.967 	 1001.92 	-2 	 -10 	 79 	0.65625 	 -1.07625 	 -0.63875 	29.2 	
-43.737 	 -192.577 	 1001.86 	-2 	 -10 	 79 	0.72625 	 -1.18125 	 -0.56 	29.2 	
-44.408 	 -192.516 	 1001.92 	-2 	 -10 	 79 	0.6825 	 -1.16375 	 -0.58625 	29.2 	
-42.395 	 -192.15 	 1001.07 	-2 	 -10 	 79 	0.6825 	 -1.09375 	 -0.53375 	29.2 	
-42.822 	 -193.37 	 1001.86 	-2 	 -10 	 79 	0.7875 	 -1.04125 	 -0.5775 	29.2 	
-41.602 	 -194.041 	 1002.78 	-2 	 -10 	 79 	0.8925 	 -1.1375 	 -0.53375 	29.2 	
-44.286 	 -194.956 	 1002.41 	-2 	 -10 	 79 	0.70875 	 -1.26 	 -0.49 	29.2 	
-44.774 	 -195.2 	 1003.08 	-2 	 -11 	 79 	0.76125 	 -1.30375 	 -0.48125 	29.2 	
-41.175 	 -193.126 	 1001.13 	-2 	 -10 	 79 	0.7525 	 -1.19 	 -0.55125 	29.2 	
-43.859 	 -192.76 	 1003.21 	-2 	 -10 	 79 	0.81375 	 -1.18125 	 -0.56875 	29.2 	
-43.371 	 -192.272 	 1004.24 	-2 	 -10 	 79 	0.77 	 -1.19 	 -0.56875 	29.2 	
-44.591 	 -193.431 	 1001.74 	-2 	 -10 	 79 	0.88375 	 -1.11125 	 -0.46375 	29.2 	
-43.859 	 -193.004 	 1003.08 	-2 	 -10 	 79 	0.7875 	 -1.09375 	 -0.5075 	29.2 	
-44.53 	 -192.516 	 1001.25 	-2 	 -10 	 79 	0.7175 	 -1.1375 	 -0.44625 	29.2 	
-44.835 	 -191.54 	 1003.08 	-2 	 -10 	 79 	0.65625 	 -1.16375 	 -0.48125 	29.2 	
-44.713 	 -191.174 	 1003.08 	-2 	 -10 	 79 	0.51625 	 -1.16375 	 -0.46375 	29.2 	
-47.336 	 -190.869 	 1005.52 	-2 	 -10 	 79 	0.72625 	 -1.18125 	 -0.44625 	29.2 	
-45.994 	 -190.93 	 1001.99 	-2 	 -10 	 79 	0.7175 	 -1.18125 	 -0.4025 	29.2 	
-45.811 	 -189.283 	 1002.05 	-2 	 -10 	 79 	0.805 	 -1.04125 	 -0.48125 	29.2 	
-45.018 	 -190.076 	 1000.64 	-2 	 -10 	 79 	0.88375 	 -1.00625 	 -0.58625 	29.2 	
-45.689 	 -190.808 	 1002.23 	-2 	 -10 	 79 	0.665 	 -1.16375 	 -0.455 	29.2 	
-46.848 	 -189.954 	 1002.23 	-2 	 -10 	 79 	0.63 	 -1.26 	 -0.49 	29.2 	
-45.872 	 -190.686 	 1003.63 	-2 	 -10 	 79 	0.69125 	 -1.23375 	 -0.37625 	29.2 	
-43.432 	 -190.198 	 1002.66 	-2 	 -10 	 79 	0.8225 	 -1.23375 	 -0.56 	29.2 	
-44.957 	 -189.954 	 1003.21 	-2 	 -10 	 79 	0.67375 	 -0.98875 	 -0.6125 	29.2 	
-43.737 	 -189.954 	 1001.74 	-2 	 -10 	 79 	0.72625 	 -1.1725 	 -0.48125 	29.2 	
-42.09 	 -189.1 	 1001.19 	-2 	 -10 	 79 	0.72625 	 -1.23375 	 -0.53375 	29.2 	
-41.541 	 -188.551 	 1000.58 	-2 	 -10 	 79 	0.63875 	 -1.28625 	 -0.58625 	29.2 	
-40.26 	 -188.978 	 1002.47 	-2 	 -10 	 79 	0.525 	 -1.26875 	 -0.46375 	29.2 	
-39.589 	 -192.028 	 1002.96 	-2 	 -10 	 79 	0.6825 	 -1.26875 	 -0.42 	29.2 	
-39.772 	 -190.686 	 1002.29 	-2 	 -10 	 79 	0.8225 	 -1.16375 	 -0.455 	29.2 	
-39.162 	 -190.564 	 1002.66 	-2 	 -10 	 79 	0.7175 	 -1.07625 	 -0.51625 	29.2 	
-37.942 	 -188.856 	 1004.79 	-2 	 -10 	 79 	0.5775 	 -1.16375 	 -0.53375 	29.2 	
-36.173 	 -188.795 	 1004.73 	-2 	 -10 	 79 	0.6125 	 -1.09375 	 -0.42875 	29.2 	
-35.868 	 -189.1 	 1001.5 	-2 	 -10 	 79 	0.69125 	 -0.98875 	 -0.455 	29.2 	
-36.722 	 -189.649 	 1002.84 	-2 	 -10 	 79 	0.72625 	 -1.0675 	 -0.39375 	29.2 	
-36.295 	 -191.296 	 1002.35 	-2 	 -10 	 79 	0.77 	 -1.21625 	 -0.4025 	29.2 	
-37.576 	 -190.686 	 1003.27 	-2 	 -10 	 79 	0.46375 	 -1.19 	 -0.4025 	29.2 	
-38.43 	 -191.967 	 1005.1 	-2 	 -10 	 79 	0.5775 	 -1.11125 	 -0.34125 	29.2 	
-39.04 	 -193.248 	 1003.82 	-2 	 -10 	 79 	0.60375 	 -1.07625 	 -0.3325 	29.2 	
-40.016 	 -193.309 	 1003.82 	-2 	 -10 	 79 	0.70875 	 -1.07625 	 -0.385 	29.2 	
-43.066 	 -194.712 	 1000.64 	-2 	 -11 	 79 	0.69125 	 -0.90125 	 -0.34125 	29.2 	
-44.103 	 -194.834 	 1001.86 	-2 	 -10 	 79 	0.8925 	 -1.05875 	 -0.42875 	29.2 	
-46.543 	 -195.871 	 1000.34 	-2 	 -11 	 79 	0.7525 	 -1.12875 	 -0.44625 	29.2 	
-50.386 	 -198.25 	 1001.44 	-2 	 -11 	 79 	0.7875 	 -1.26875 	 -0.3675 	29.2 	
-52.094 	 -198.494 	 1000.83 	-2 	 -11 	 78 	0.805 	 -1.1025 	 -0.4375 	29.2 	
-54.046 	 -200.263 	 999.607 	-3 	 -11 	 78 	0.72625 	 -1.05 	 -0.35875 	29.2 	
-55.632 	 -197.335 	 1000.83 	-3 	 -11 	 79 	0.91 	 -1.19875 	 -0.42 	29.2 	
-57.828 	 -200.202 	 1001.13 	-3 	 -11 	 78 	0.7875 	 -1.00625 	 -0.56 	29.2 	
-58.011 	 -199.043 	 1000.28 	-3 	 -11 	 78 	0.67375 	 -1.09375 	 -0.56875 	29.2 	
-58.072 	 -197.762 	 998.692 	-3 	 -11 	 79 	0.735 	 -1.1375 	 -0.58625 	29.2 	
-57.828 	 -196.847 	 998.57 	-3 	 -11 	 79 	0.6125 	 -1.12875 	 -0.4725 	29.2 	
-58.499 	 -195.2 	 999.424 	-3 	 -11 	 79 	0.6825 	 -1.09375 	 -0.62125 	29.2 	
-59.353 	 -197.396 	 999.546 	-3 	 -11 	 79 	0.7 	 -1.02375 	 -0.62125 	29.2 	
-59.292 	 -195.932 	 1001.01 	-3 	 -11 	 79 	0.70875 	 -1.11125 	 -0.58625 	29.2 	
-56.73 	 -195.627 	 1001.19 	-3 	 -11 	 79 	0.7 	 -1.155 	 -0.58625 	29.2 	
-56.425 	 -193.614 	 1000.46 	-3 	 -10 	 79 	0.6475 	 -1.11125 	 -0.6475 	29.2 	
-54.595 	 -193.248 	 1001.5 	-3 	 -10 	 79 	0.6825 	 -1.14625 	 -0.6825 	29.2 	
-53.253 	 -192.882 	 1001.31 	-2 	 -10 	 79 	0.6125 	 -1.085 	 -0.595 	29.2 	
-53.436 	 -191.601 	 1001.92 	-2 	 -10 	 79 	0.735 	 -1.155 	 -0.6475 	29.3 	
-52.094 	 -189.344 	 1004.37 	-2 	 -10 	 79 	0.79625 	 -1.2075 	 -0.7525 	29.3 	
-49.715 	 -190.137 	 1002.9 	-2 	 -10 	 79 	0.70875 	 -1.11125 	 -0.76125 	29.3 	
-48.8 	 -188.795 	 1004.67 	-2 	 -10 	 79 	0.70875 	 -1.1375 	 -0.63 	29.3 	
-46.604 	 -187.148 	 1004 	-2 	 -10 	 79 	0.8925 	 -1.11125 	 -0.67375 	29.3 	
-46.055 	 -186.355 	 1003.39 	-2 	 -10 	 79 	0.84 	 -1.295 	 -0.665 	29.3 	
-45.872 	 -185.623 	 1003.63 	-2 	 -10 	 79 	0.65625 	 -1.12875 	 -0.5425 	29.3 	
-45.872 	 -185.44 	 1003.75 	-2 	 -10 	 79 	0.67375 	 -1.225 	 -0.62125 	29.3 	
-46.116 	 -187.758 	 1003.94 	-2 	 -10 	 79 	0.62125 	 -1.19875 	 -0.62125 	29.2 	
-44.469 	 -188.307 	 1005.77 	-2 	 -10 	 79 	0.6825 	 -1.12875 	 -0.60375 	29.2 	
-44.042 	 -188.612 	 1004.12 	-2 	 -10 	 79 	0.7875 	 -1.02375 	 -0.525 	29.2 	
-43.981 	 -187.636 	 1004.61 	-2 	 -10 	 79 	0.6475 	 -1.23375 	 -0.49875 	29.2 	
-43.249 	 -189.466 	 1004.18 	-2 	 -10 	 79 	0.58625 	 -1.26 	 -0.525 	29.2 	
-44.164 	 -186.05 	 1003.33 	-2 	 -10 	 79 	0.6125 	 -1.18125 	 -0.5075 	29.2 	
-44.042 	 -187.88 	 1003.57 	-2 	 -10 	 79 	0.6475 	 -1.23375 	 -0.6475 	29.2 	
-45.628 	 -188.856 	 1003.57 	-2 	 -10 	 79 	0.7525 	 -1.16375 	 -0.63 	29.2 	
-42.944 	 -188.307 	 1005.52 	-2 	 -10 	 79 	0.6125 	 -1.05875 	 -0.5775 	29.2 	
-43.859 	 -191.906 	 1007.6 	-2 	 -10 	 79 	0.77875 	 -1.16375 	 -0.62125 	29.2 	
-43.615 	 -190.808 	 1005.28 	-2 	 -10 	 79 	0.6475 	 -1.155 	 -0.65625 	29.2 	
-41.48 	 -192.028 	 1003.33 	-2 	 -10 	 79 	0.56 	 -1.18125 	 -0.76125 	29.2 	
-41.724 	 -191.784 	 1003.08 	-2 	 -10 	 79 	0.595 	 -1.12875 	 -0.65625 	29.2 	
-41.297 	 -190.747 	 1003.39 	-2 	 -10 	 79 	0.6825 	 -1.09375 	 -0.70875 	29.2 	
-39.65 	 -190.32 	 1003.39 	-2 	 -10 	 79 	0.72625 	 -1.12875 	 -0.65625 	29.2 	
-40.992 	 -193.492 	 1005.95 	-2 	 -10 	 79 	0.665 	 -1.23375 	 -0.74375 	29.2 	
-41.297 	 -193.309 	 1003.57 	-2 	 -10 	 79 	0.67375 	 -1.19875 	 -0.805 	29.2 	
-41.175 	 -193.37 	 1003.08 	-2 	 -10 	 79 	0.77 	 -1.14625 	 -0.7525 	29.2 	
-40.687 	 -194.163 	 1003.02 	-2 	 -10 	 79 	0.6825 	 -1.09375 	 -0.665 	29.2 	
-42.334 	 -193.98 	 1002.96 	-2 	 -10 	 79 	0.70875 	 -1.155 	 -0.665 	29.2 	
-42.883 	 -191.967 	 1003.02 	-2 	 -10 	 79 	0.7 	 -1.2075 	 -0.6825 	29.2 	
-43.066 	 -193.736 	 1000.95 	-2 	 -10 	 79 	0.77875 	 -1.1725 	 -0.6475 	29.2 	
-43.615 	 -193.37 	 1002.9 	-2 	 -10 	 79 	0.6125 	 -1.16375 	 -0.6125 	29.2 	
-43.554 	 -193.431 	 1001.99 	-2 	 -10 	 79 	0.63 	 -1.11125 	 -0.63 	29.2 	
-44.042 	 -193.858 	 1002.47 	-2 	 -10 	 79 	0.7175 	 -1.21625 	 -0.5075 	29.2 	
-46.299 	 -195.566 	 1002.9 	-2 	 -11 	 79 	0.735 	 -1.19 	 -0.5775 	29.2 	
-47.702 	 -193.431 	 1003.82 	-2 	 -10 	 79 	0.79625 	 -1.085 	 -0.60375 	29.2 	
-48.068 	 -192.882 	 1002.9 	-2 	 -10 	 79 	0.84 	 -1.1025 	 -0.665 	29.2 	
-48.312 	 -194.468 	 999.546 	-2 	 -10 	 79 	0.93625 	 -1.1025 	 -0.63875 	29.2 	
-50.325 	 -193.98 	 1001.5 	-2 	 -10 	 79 	0.86625 	 -1.155 	 -0.63 	29.2 	
-51.789 	 -192.028 	 1001.25 	-2 	 -10 	 79 	0.735 	 -1.19875 	 -0.6125 	29.2 	
-50.508 	 -192.699 	 1003.33 	-2 	 -10 	 79 	0.69125 	 -1.2075 	 -0.49875 	29.2 	
-49.959 	 -193.736 	 1002.96 	-2 	 -10 	 79 	0.60375 	 -1.1025 	 -0.63 	29.2 	
-49.532 	 -193.37 	 1004.3 	-2 	 -10 	 79 	0.7525 	 -1.18125 	 -0.6475 	29.2 	
-48.861 	 -192.943 	 1001.92 	-2 	 -10 	 79 	0.76125 	 -1.1725 	 -0.63 	29.2 	
-50.325 	 -193.858 	 1002.41 	-2 	 -10 	 79 	0.6825 	 -1.05875 	 -0.525 	29.2 	
-49.471 	 -191.54 	 1002.66 	-2 	 -10 	 79 	0.6825 	 -1.11125 	 -0.63875 	29.2 	
-48.434 	 -190.686 	 1001.92 	-2 	 -10 	 79 	0.62125 	 -1.18125 	 -0.69125 	29.2 	
-46.848 	 -190.198 	 1002.11 	-2 	 -10 	 79 	0.67375 	 -1.2425 	 -0.55125 	29.2 	
-45.018 	 -191.235 	 1003.08 	-2 	 -10 	 79 	0.63875 	 -1.295 	 -0.6475 	29.2 	
-44.408 	 -190.625 	 1002.17 	-2 	 -10 	 79 	0.7175 	 -1.19 	 -0.6825 	29.2 	
-43.188 	 -191.235 	 1001.74 	-2 	 -10 	 79 	0.7 	 -1.21625 	 -0.62125 	29.2 	
-41.419 	 -189.466 	 1003.57 	-2 	 -10 	 79 	0.91 	 -1.18125 	 -0.665 	29.2 	
-41.419 	 -190.015 	 1001.92 	-2 	 -10 	 79 	0.84875 	 -1.23375 	 -0.60375 	29.2 	
-38.735 	 -189.588 	 1001.44 	-2 	 -10 	 79 	0.86625 	 -1.0675 	 -0.63 	29.2 	
-37.759 	 -191.601 	 1001.68 	-2 	 -10 	 79 	0.6825 	 -1.19875 	 -0.595 	29.2 	
-38.247 	 -190.442 	 1000.89 	-2 	 -10 	 79 	0.5775 	 -1.16375 	 -0.62125 	29.2 	
-38.369 	 -190.808 	 1003.94 	-2 	 -10 	 79 	0.67375 	 -1.12 	 -0.70875 	29.2 	
-36.539 	 -191.662 	 1002.47 	-2 	 -10 	 79 	0.6825 	 -1.23375 	 -0.51625 	29.2 	
-37.698 	 -192.638 	 1002.41 	-2 	 -10 	 79 	0.7875 	 -1.12875 	 -0.48125 	29.2 	
-35.807 	 -190.564 	 1003.08 	-2 	 -10 	 79 	0.74375 	 -1.02375 	 -0.49875 	29.2 	
-37.149 	 -195.261 	 1000.46 	-2 	 -11 	 79 	0.62125 	 -1.05 	 -0.49 	29.2 	
-37.21 	 -192.821 	 1000.58 	-2 	 -10 	 79 	0.72625 	 -1.1025 	 -0.51625 	29.2 	
-38.491 	 -191.723 	 1001.07 	-2 	 -10 	 79 	0.6825 	 -1.12875 	 -0.65625 	29.2 	
-37.942 	 -193.126 	 1001.38 	-2 	 -10 	 79 	0.6825 	 -0.95375 	 -0.62125 	29.2 	
-40.382 	 -194.407 	 1002.66 	-2 	 -10 	 79 	0.6825 	 -1.155 	 -0.5075 	29.2 	
-42.517 	 -194.834 	 1002.72 	-2 	 -10 	 79 	0.7 	 -1.2075 	 -0.53375 	29.2 	
-43.554 	 -194.895 	 1002.41 	-2 	 -10 	 79 	0.67375 	 -1.12875 	 -0.46375 	29.2 	
-44.652 	 -195.383 	 1002.72 	-2 	 -11 	 79 	0.67375 	 -1.1375 	 -0.53375 	29.2 	
-45.872 	 -194.102 	 1001.56 	-2 	 -10 	 79 	0.77875 	 -1.11125 	 -0.56875 	29.2 	
-47.092 	 -193.248 	 1003.82 	-2 	 -10 	 79 	0.62125 	 -1.19 	 -0.39375 	29.2 	
-47.458 	 -192.943 	 1001.62 	-2 	 -10 	 79 	0.70875 	 -1.28625 	 -0.48125 	29.2 	
-46.299 	 -194.285 	 1000.46 	-2 	 -10 	 79 	0.6825 	 -1.18125 	 -0.4375 	29.2 	
-47.824 	 -193.858 	 999.79 	-2 	 -10 	 79 	0.72625 	 -1.25125 	 -0.385 	29.2 	
-47.458 	 -193.492 	 1000.58 	-2 	 -10 	 79 	0.595 	 -1.2075 	 -0.46375 	29.3 	
-48.983 	 -193.309 	 1001.92 	-2 	 -10 	 79 	0.70875 	 -1.0675 	 -0.53375 	29.3 	
-49.532 	 -191.479 	 1001.5 	-2 	 -10 	 79 	0.79625 	 -1.19875 	 -0.58625 	29.3 	
-49.044 	 -191.174 	 1001.99 	-2 	 -10 	 79 	0.95375 	 -1.19875 	 -0.44625 	29.3 	
-49.837 	 -191.784 	 1002.6 	-2 	 -10 	 79 	0.6125 	 -1.12875 	 -0.4375 	29.3 	
-49.471 	 -190.808 	 1002.72 	-2 	 -10 	 79 	0.69125 	 -1.2075 	 -0.60375 	29.3 	
-46.909 	 -190.015 	 1003.21 	-2 	 -10 	 79 	0.67375 	 -1.18125 	 -0.525 	29.3 	
-47.824 	 -188.612 	 1003.82 	-2 	 -10 	 79 	0.76125 	 -1.2075 	 -0.46375 	29.3 	
-47.946 	 -189.771 	 1004.79 	-2 	 -10 	 79 	0.7 	 -1.19 	 -0.35875 	29.2 	
-44.896 	 -188.246 	 1003.69 	-2 	 -10 	 79 	0.81375 	 -1.0325 	 -0.5425 	29.2 	
-46.36 	 -187.209 	 1002.17 	-2 	 -10 	 79 	0.81375 	 -1.19 	 -0.525 	29.2 	
-45.201 	 -188.612 	 1003.45 	-2 	 -10 	 79 	0.735 	 -1.25125 	 -0.4725 	29.2 	
-45.323 	 -187.941 	 1001.8 	-2 	 -10 	 79 	0.8225 	 -0.98875 	 -0.51625 	29.2 	
-45.262 	 -187.758 	 1005.89 	-2 	 -10 	 79 	0.65625 	 -1.1375 	 -0.49875 	29.2 	
-43.371 	 -187.331 	 1003.51 	-2 	 -10 	 79 	0.77 	 -1.2075 	 -0.49875 	29.2 	
-44.835 	 -187.88 	 1002.29 	-2 	 -10 	 79 	0.69125 	 -1.16375 	 -0.44625 	29.2 	
-42.456 	 -188.49 	 1002.9 	-2 	 -10 	 79 	0.6475 	 -1.21625 	 -0.5775 	29.2 	
-44.896 	 -189.527 	 1002.47 	-2 	 -10 	 79 	0.62125 	 -1.1725 	 -0.4725 	29.2 	
-43.249 	 -191.601 	 1002.05 	-2 	 -10 	 79 	0.72625 	 -1.225 	 -0.5425 	29.2 	
-47.336 	 -190.442 	 1002.41 	-2 	 -10 	 79 	0.70875 	 -1.155 	 -0.65625 	29.2 	
-47.58 	 -192.76 	 1001.13 	-2 	 -10 	 79 	0.6825 	 -1.1725 	 -0.4725 	29.2 	
-46.36 	 -192.821 	 1001.01 	-2 	 -10 	 79 	0.67375 	 -1.09375 	 -0.4725 	29.2 	
-46.055 	 -194.102 	 1001.19 	-2 	 -10 	 79 	0.6475 	 -1.05875 	 -0.60375 	29.2 	
-47.58 	 -195.017 	 1002.66 	-2 	 -10 	 79 	0.7525 	 -1.1725 	 -0.4725 	29.2 	
-45.506 	 -194.468 	 1001.31 	-2 	 -10 	 79 	0.79625 	 -1.0675 	 -0.44625 	29.2 	
-47.641 	 -195.261 	 1002.84 	-2 	 -11 	 79 	0.74375 	 -1.14625 	 -0.56 	29.2 	
-48.068 	 -196.115 	 999.241 	-2 	 -11 	 79 	0.7875 	 -1.16375 	 -0.595 	29.2 	
-48.312 	 -196.664 	 1000.4 	-2 	 -11 	 79 	0.7875 	 -1.05 	 -0.7175 	29.2 	
-48.129 	 -194.712 	 1001.01 	-2 	 -10 	 79 	0.69125 	 -1.155 	 -0.70875 	29.2 	
-48.495 	 -195.688 	 1002.96 	-2 	 -11 	 79 	0.665 	 -1.19 	 -0.6475 	29.2 	
-47.092 	 -197.091 	 1001.8 	-2 	 -11 	 79 	0.77875 	 -1.0325 	 -0.7175 	29.2 	
-46.909 	 -195.322 	 1001.92 	-2 	 -11 	 79 	0.76125 	 -1.0675 	 -0.60375 	29.2 	
-46.909 	 -196.359 	 1001.07 	-2 	 -11 	 79 	0.60375 	 -1.11125 	 -0.6475 	29.2 	
-45.018 	 -193.98 	 1001.25 	-2 	 -10 	 79 	0.7175 	 -1.225 	 -0.7 	29.2 	
-44.469 	 -194.407 	 1002.11 	-2 	 -10 	 79 	0.91875 	 -1.2075 	 -0.65625 	29.2 	
-45.445 	 -195.261 	 1002.23 	-2 	 -11 	 79 	0.7 	 -1.155 	 -0.63 	29.2 	
-43.066 	 -193.553 	 1001.62 	-2 	 -10 	 79 	0.55125 	 -1.19875 	 -0.58625 	29.2 	
-44.896 	 -191.357 	 1002.6 	-2 	 -10 	 79 	0.70875 	 -1.2075 	 -0.5775 	29.2 	
-44.286 	 -194.163 	 1001.8 	-2 	 -10 	 79 	0.72625 	 -1.21625 	 -0.525 	29.2 	
-46.299 	 -192.699 	 1003.21 	-2 	 -10 	 79 	0.69125 	 -1.09375 	 -0.58625 	29.2 	
-45.933 	 -190.808 	 1001.07 	-2 	 -10 	 79 	0.70875 	 -1.16375 	 -0.56 	29.2 	
-44.347 	 -189.588 	 1002.29 	-2 	 -10 	 79 	0.805 	 -1.0675 	 -0.5075 	29.2 	
-44.591 	 -190.808 	 1002.29 	-2 	 -10 	 79 	0.65625 	 -1.1375 	 -0.5775 	29.2 	
-45.14 	 -187.148 	 1000.46 	-2 	 -10 	 79 	0.56875 	 -1.04125 	 -0.525 	29.2 	
-43.92 	 -187.209 	 1002.47 	-2 	 -10 	 79 	0.8575 	 -1.1725 	 -0.4725 	29.2 	
-44.713 	 -190.564 	 1002.84 	-2 	 -10 	 79 	0.65625 	 -1.225 	 -0.525 	29.2 	
-46.421 	 -190.686 	 1004 	-2 	 -10 	 79 	0.595 	 -1.12875 	 -0.56875 	29.2 	
-45.384 	 -189.039 	 1003.14 	-2 	 -10 	 79 	0.805 	 -1.18125 	 -0.48125 	29.2 	
-45.14 	 -189.832 	 1003.02 	-2 	 -10 	 79 	0.6825 	 -1.0675 	 -0.4375 	29.3 	
-43.92 	 -190.808 	 1004.55 	-2 	 -10 	 79 	0.83125 	 -1.1725 	 -0.455 	29.3 	
-45.384 	 -189.71 	 1002.35 	-2 	 -10 	 79 	0.91 	 -1.2425 	 -0.525 	29.3 	
-43.066 	 -190.137 	 1001.92 	-2 	 -10 	 79 	0.665 	 -1.12 	 -0.4375 	29.3 	
-46.36 	 -190.93 	 1002.47 	-2 	 -10 	 79 	0.7 	 -1.16375 	 -0.385 	29.3 	
-44.225 	 -191.723 	 1001.44 	-2 	 -10 	 79 	0.665 	 -1.085 	 -0.39375 	29.3 	
-44.103 	 -191.418 	 1001.86 	-2 	 -10 	 79 	0.63875 	 -1.12875 	 -0.55125 	29.3 	
-43.432 	 -194.102 	 1004.91 	-2 	 -10 	 79 	0.805 	 -1.155 	 -0.6125 	29.3 	
-44.957 	 -193.004 	 1003.33 	-2 	 -10 	 79 	0.6475 	 -1.155 	 -0.5775 	29.2 	
-42.883 	 -191.418 	 1002.66 	-2 	 -10 	 79 	0.72625 	 -1.11125 	 -0.5425 	29.2 	
-43.615 	 -191.235 	 1001.01 	-2 	 -10 	 79 	0.77 	 -1.155 	 -0.525 	29.2 	
-44.652 	 -193.248 	 1002.78 	-2 	 -10 	 79 	0.67375 	 -1.19875 	 -0.67375 	29.2 	
-43.676 	 -193.431 	 1001.8 	-2 	 -10 	 79 	0.8225 	 -1.14625 	 -0.7175 	29.2 	
-43.31 	 -192.882 	 1004.3 	-2 	 -10 	 79 	0.7875 	 -1.16375 	 -0.6475 	29.2 	
-41.358 	 -194.224 	 1003.21 	-2 	 -10 	 79 	0.67375 	 -1.05875 	 -0.56875 	29.2 	
-42.334 	 -192.089 	 1000.16 	-2 	 -10 	 79 	0.8225 	 -1.1025 	 -0.63875 	29.2 	
-40.992 	 -191.967 	 1001.62 	-2 	 -10 	 79 	0.8575 	 -1.12 	 -0.67375 	29.2 	
-43.005 	 -194.468 	 1000.34 	-2 	 -10 	 79 	0.735 	 -1.12875 	 -0.51625 	29.2 	
-42.334 	 -193.065 	 1003.33 	-2 	 -10 	 79 	0.7875 	 -1.155 	 -0.525 	29.2 	
-42.822 	 -193.858 	 1002.96 	-2 	 -10 	 79 	0.7175 	 -1.28625 	 -0.4375 	29.2 	
-43.798 	 -194.224 	 1002.29 	-2 	 -10 	 79 	0.5775 	 -1.09375 	 -0.455 	29.2 	
-43.188 	 -194.529 	 1002.72 	-2 	 -10 	 79 	0.56875 	 -1.085 	 -0.4725 	29.2 	
-43.066 	 -192.882 	 1001.8 	-2 	 -10 	 79 	0.7175 	 -1.12875 	 -0.5075 	29.2 	
-44.896 	 -194.468 	 1001.68 	-2 	 -10 	 79 	0.805 	 -1.11125 	 -0.4725 	29.2 	
-44.469 	 -192.943 	 1001.86 	-2 	 -10 	 79 	0.62125 	 -1.0675 	 -0.385 	29.3 	
-44.713 	 -192.272 	 1003.51 	-2 	 -10 	 79 	0.805 	 -1.14625 	 -0.5075 	29.3 	
-43.676 	 -191.235 	 1001.62 	-2 	 -10 	 79 	0.665 	 -1.14625 	 -0.455 	29.3 	
-44.408 	 -192.699 	 1002.53 	-2 	 -10 	 79 	0.7525 	 -1.30375 	 -0.5775 	29.3 	
-47.031 	 -192.333 	 1001.8 	-2 	 -10 	 79 	0.77 	 -1.19 	 -0.4725 	29.3 	
-47.092 	 -191.906 	 1001.25 	-2 	 -10 	 79 	0.77875 	 -1.09375 	 -0.525 	29.3 	
-46.177 	 -192.638 	 1000.58 	-2 	 -10 	 79 	0.81375 	 -1.0675 	 -0.46375 	29.3 	
-46.421 	 -190.869 	 1001.99 	-2 	 -10 	 79 	0.74375 	 -1.12 	 -0.455 	29.3 	
-46.787 	 -190.076 	 1001.68 	-2 	 -10 	 79 	0.77875 	 -1.19 	 -0.5775 	29.3 	
-46.604 	 -189.588 	 1003.82 	-2 	 -10 	 79 	0.81375 	 -1.1375 	 -0.49 	29.3 	
-46.604 	 -189.527 	 1003.02 	-2 	 -10 	 79 	0.7875 	 -1.0675 	 -0.49875 	29.3 	
-43.676 	 -190.137 	 1003.21 	-2 	 -10 	 79 	0.77 	 -1.00625 	 -0.63 	29.3 	
-46.116 	 -188.429 	 1004.12 	-2 	 -10 	 79 	0.665 	 -1.25125 	 -0.55125 	29.3 	
-45.445 	 -189.527 	 1003.33 	-2 	 -10 	 79 	0.5775 	 -1.19 	 -0.5775 	29.3 	
-43.676 	 -189.954 	 1002.53 	-2 	 -10 	 79 	0.805 	 -0.93625 	 -0.37625 	29.3 	
-43.798 	 -188.551 	 1003.14 	-2 	 -10 	 79 	0.56 	 -1.1025 	 -0.48125 	29.3 	
-43.615 	 -188.124 	 1001.68 	-2 	 -10 	 79 	0.70875 	 -1.1375 	 -0.455 	29.2 	
-43.554 	 -190.015 	 1004.12 	-2 	 -10 	 79 	0.63 	 -1.26 	 -0.5075 	29.2 	
-39.772 	 -189.344 	 1003.33 	-2 	 -10 	 79 	0.70875 	 -0.9975 	 -0.49 	29.2 	
-41.724 	 -188.124 	 1004.12 	-2 	 -10 	 79 	0.63 	 -1.11125 	 -0.48125 	29.2 	
-41.175 	 -190.442 	 1003.63 	-2 	 -10 	 79 	0.70875 	 -1.09375 	 -0.53375 	29.2 	
-40.138 	 -187.514 	 1002.84 	-2 	 -10 	 79 	0.72625 	 -1.12875 	 -0.56875 	29.2 	
-38.918 	 -188.429 	 1003.08 	-2 	 -10 	 79 	0.6825 	 -1.1375 	 -0.42875 	29.2 	
-40.382 	 -189.893 	 1000.89 	-2 	 -10 	 79 	0.84875 	 -1.09375 	 -0.46375 	29.2 	
-38.613 	 -190.686 	 1001.13 	-2 	 -10 	 79 	0.7 	 -1.23375 	 -0.4025 	29.2 	
-36.905 	 -189.71 	 1003.21 	-2 	 -10 	 79 	0.63875 	 -1.1375 	 -0.42 	29.2 	
-38.796 	 -189.161 	 1003.57 	-2 	 -10 	 79 	0.62125 	 -1.2075 	 -0.3675 	29.2 	
-38.735 	 -190.076 	 1003.57 	-2 	 -10 	 79 	0.805 	 -1.11125 	 -0.34125 	29.2 	
-40.199 	 -194.346 	 1005.46 	-2 	 -10 	 79 	0.58625 	 -0.9975 	 -0.28875 	29.2 	
-41.663 	 -193.98 	 1001.74 	-2 	 -10 	 79 	0.6825 	 -1.09375 	 -0.35875 	29.2 	
-44.774 	 -191.784 	 1001.13 	-2 	 -10 	 79 	0.595 	 -1.19875 	 -0.39375 	29.2 	
-46.177 	 -195.81 	 999.912 	-2 	 -11 	 79 	0.69125 	 -1.16375 	 -0.37625 	29.2 	
-46.848 	 -197.396 	 1000.58 	-2 	 -11 	 79 	0.595 	 -1.155 	 -0.39375 	29.2 	
-48.556 	 -196.054 	 1001.19 	-2 	 -11 	 79 	0.72625 	 -1.19 	 -0.5075 	29.2 	
-49.715 	 -198.067 	 1000.4 	-2 	 -11 	 79 	0.69125 	 -1.1375 	 -0.4375 	29.2 	
-52.033 	 -200.202 	 999.79 	-2 	 -11 	 78 	0.62125 	 -1.21625 	 -0.48125 	29.2 	
-54.656 	 -201.117 	 999.668 	-3 	 -11 	 78 	0.7875 	 -1.18125 	 -0.39375 	29.2 	
-57.218 	 -199.531 	 998.692 	-3 	 -11 	 78 	0.65625 	 -1.18125 	 -0.41125 	29.2 	
-56.425 	 -199.836 	 999.912 	-3 	 -11 	 78 	0.735 	 -1.16375 	 -0.48125 	29.2 	
-55.754 	 -200.934 	 998.204 	-3 	 -11 	 78 	0.83125 	 -1.16375 	 -0.56 	29.2 	
-57.462 	 -200.446 	 1001.25 	-3 	 -11 	 78 	0.875 	 -1.04125 	 -0.48125 	29.2 	
-58.682 	 -199.226 	 998.997 	-3 	 -11 	 78 	0.8575 	 -0.9975 	 -0.58625 	29.2 	
-56.974 	 -197.579 	 1001.62 	-3 	 -11 	 79 	0.8575 	 -1.0325 	 -0.7 	29.2 	
-54.839 	 -196.786 	 999.79 	-3 	 -11 	 79 	0.83125 	 -1.155 	 -0.6825 	29.2 	
-56.974 	 -196.054 	 1001.13 	-3 	 -11 	 79 	0.6825 	 -1.1375 	 -0.56875 	29.2 	
-53.497 	 -195.2 	 1001.44 	-3 	 -11 	 79 	0.60375 	 -1.0675 	 -0.70875 	29.2 	
-53.68 	 -194.102 	 1001.86 	-3 	 -10 	 79 	0.63875 	 -1.015 	 -0.7175 	29.2 	
-52.582 	 -193.126 	 1001.74 	-2 	 -10 	 79 	0.76125 	 -1.14625 	 -0.63 	29.2 	
-50.569 	 -192.882 	 1004.12 	-2 	 -10 	 79 	0.595 	 -1.16375 	 -0.60375 	29.2 	
-50.935 	 -190.747 	 1003.57 	-2 	 -10 	 79 	0.665 	 -1.2425 	 -0.63 	29.2 	
-49.898 	 -190.015 	 1003.57 	-2 	 -10 	 79 	0.63875 	 -0.98875 	 -0.70875 	29.2 	
-48.312 	 -188.429 	 1003.45 	-2 	 -10 	 79 	0.5775 	 -1.1025 	 -0.525 	29.2 	
-47.336 	 -187.514 	 1002.29 	-2 	 -10 	 79 	0.6125 	 -1.1375 	 -0.6825 	29.2 	
-46.116 	 -187.087 	 1002.96 	-2 	 -10 	 79 	0.6825 	 -1.19875 	 -0.69125 	29.2 	
-45.872 	 -186.233 	 1004.18 	-2 	 -10 	 79 	0.7875 	 -1.23375 	 -0.60375 	29.2 	
-45.933 	 -185.745 	 1005.46 	-2 	 -10 	 79 	0.735 	 -1.19 	 -0.595 	29.2 	
-43.432 	 -185.379 	 1005.58 	-2 	 -10 	 79 	0.8925 	 -1.07625 	 -0.6125 	29.2 	
-41.48 	 -183.305 	 1004 	-2 	 -10 	 79 	0.7875 	 -1.0675 	 -0.665 	29.2 	
-42.883 	 -184.952 	 1005.28 	-2 	 -10 	 79 	0.74375 	 -1.225 	 -0.5425 	29.2 	
-41.602 	 -183.915 	 1002.96 	-2 	 -10 	 79 	0.8225 	 -1.12875 	 -0.48125 	29.2 	
-40.992 	 -186.111 	 1003.21 	-2 	 -10 	 79 	0.805 	 -1.225 	 -0.5425 	29.2 	
-41.114 	 -185.623 	 1004.61 	-2 	 -10 	 79 	0.6475 	 -1.14625 	 -0.56 	29.2 	
-43.737 	 -185.257 	 1005.65 	-2 	 -10 	 79 	0.62125 	 -1.19 	 -0.49875 	29.2 	
-40.687 	 -186.477 	 1004.24 	-2 	 -10 	 79 	0.6125 	 -1.00625 	 -0.56 	29.2 	
-40.138 	 -189.71 	 1004.73 	-2 	 -10 	 79 	0.76125 	 -1.18125 	 -0.56 	29.2 	
-40.687 	 -187.88 	 1001.99 	-2 	 -10 	 79 	0.81375 	 -1.2075 	 -0.55125 	29.2 	
-38.613 	 -189.161 	 1003.14 	-2 	 -10 	 79 	0.6825 	 -1.18125 	 -0.5075 	29.2 	
-40.992 	 -190.869 	 1000.89 	-2 	 -10 	 79 	0.51625 	 -0.98875 	 -0.55125 	29.2 	
-40.199 	 -191.296 	 1000.22 	-2 	 -10 	 79 	0.56 	 -1.12 	 -0.70875 	29.2 	
-39.406 	 -191.418 	 1000.95 	-2 	 -10 	 79 	0.665 	 -1.0675 	 -0.7175 	29.2 	
-40.077 	 -193.248 	 1001.62 	-2 	 -10 	 79 	0.72625 	 -1.18125 	 -0.55125 	29.2 	
-40.138 	 -194.529 	 1004.06 	-2 	 -10 	 79 	0.6475 	 -1.12 	 -0.58625 	29.2 	
-40.321 	 -192.821 	 1004.55 	-2 	 -10 	 79 	0.77875 	 -1.12 	 -0.58625 	29.2 	
-41.053 	 -194.651 	 1002.66 	-2 	 -10 	 79 	0.5775 	 -1.05 	 -0.67375 	29.2 	
-39.284 	 -194.712 	 1000.46 	-2 	 -11 	 79 	0.83125 	 -1.0675 	 -0.58625 	29.2 	
-42.944 	 -196.542 	 1000.03 	-2 	 -11 	 79 	0.65625 	 -1.05 	 -0.55125 	29.2 	
-41.907 	 -194.712 	 999.302 	-2 	 -11 	 79 	0.7525 	 -1.1725 	 -0.65625 	29.2 	
-40.87 	 -195.322 	 1001.92 	-2 	 -11 	 79 	0.69125 	 -1.1375 	 -0.7175 	29.2 	
-44.652 	 -197.457 	 1003.75 	-2 	 -11 	 79 	0.7525 	 -1.1725 	 -0.72625 	29.2 	
-44.286 	 -196.237 	 1002.29 	-2 	 -11 	 79 	0.77 	 -1.085 	 -0.595 	29.2 	
-46.116 	 -195.078 	 1004.85 	-2 	 -10 	 79 	0.70875 	 -1.04125 	 -0.6825 	29.2 	
-45.811 	 -194.895 	 1002.41 	-2 	 -10 	 79 	0.6825 	 -1.09375 	 -0.67375 	29.2 	
-45.872 	 -194.529 	 1000.28 	-2 	 -10 	 79 	0.86625 	 -1.21625 	 -0.56 	29.2 	
-47.519 	 -195.322 	 1000.89 	-2 	 -11 	 79 	0.875 	 -1.2775 	 -0.665 	29.2 	
-47.092 	 -195.078 	 1001.92 	-2 	 -11 	 79 	0.84875 	 -1.2075 	 -0.49875 	29.2 	
-47.58 	 -197.091 	 1002.96 	-2 	 -11 	 79 	0.74375 	 -0.9975 	 -0.51625 	29.2 	
-49.837 	 -194.773 	 1003.14 	-2 	 -10 	 79 	0.6825 	 -1.02375 	 -0.55125 	29.2 	
-50.264 	 -194.956 	 1001.68 	-2 	 -11 	 79 	0.67375 	 -1.16375 	 -0.5075 	29.2 	
-50.874 	 -193.492 	 1001.8 	-2 	 -10 	 79 	0.67375 	 -1.21625 	 -0.595 	29.2 	
-48.19 	 -192.333 	 1001.68 	-2 	 -10 	 79 	0.86625 	 -1.11125 	 -0.49 	29.2 	
-49.166 	 -192.882 	 1001.92 	-2 	 -10 	 79 	0.735 	 -1.19 	 -0.5425 	29.2 	
-48.922 	 -192.455 	 1001.8 	-2 	 -10 	 79 	0.665 	 -1.19 	 -0.595 	29.2 	
-48.617 	 -190.686 	 1004.67 	-2 	 -10 	 79 	0.7525 	 -1.32125 	 -0.525 	29.2 	
-48.739 	 -191.357 	 1003.57 	-2 	 -10 	 79 	0.81375 	 -1.2075 	 -0.49 	29.2 	
-47.092 	 -191.54 	 1005.71 	-2 	 -10 	 79 	0.70875 	 -1.19875 	 -0.48125 	29.2 	
-48.129 	 -191.296 	 1004.24 	-2 	 -10 	 79 	0.7175 	 -1.2775 	 -0.56875 	29.2 	
-48.007 	 -189.588 	 1002.35 	-2 	 -10 	 79 	0.735 	 -1.25125 	 -0.51625 	29.2 	
-44.469 	 -191.113 	 1003.51 	-2 	 -10 	 79 	0.86625 	 -1.07625 	 -0.60375 	29.2 	
-44.408 	 -189.344 	 1001.56 	-2 	 -10 	 79 	0.77 	 -1.02375 	 -0.58625 	29.2 	
-42.944 	 -188.49 	 1002.9 	-2 	 -10 	 79 	0.67375 	 -1.28625 	 -0.6475 	29.2 	
-42.456 	 -188.978 	 1003.21 	-2 	 -10 	 79 	0.83125 	 -1.11125 	 -0.595 	29.2 	
-41.114 	 -189.1 	 1004.67 	-2 	 -10 	 79 	0.8925 	 -1.18125 	 -0.62125 	29.2 	
-40.504 	 -191.235 	 1006.56 	-2 	 -10 	 79 	0.84875 	 -1.155 	 -0.58625 	29.2 	
-38.674 	 -191.052 	 1006.26 	-2 	 -10 	 79 	0.77875 	 -1.1725 	 -0.63875 	29.2 	
-39.528 	 -189.588 	 1002.66 	-2 	 -10 	 79 	0.74375 	 -1.14625 	 -0.6825 	29.2 	
-37.149 	 -190.808 	 1002.78 	-2 	 -10 	 79 	0.84 	 -1.11125 	 -0.48125 	29.2 	
-38.857 	 -188.856 	 1000.34 	-2 	 -10 	 79 	0.76125 	 -1.1025 	 -0.4725 	29.2 	
-37.576 	 -190.503 	 1001.38 	-2 	 -10 	 79 	0.65625 	 -1.2075 	 -0.51625 	29.2 	
-39.345 	 -190.381 	 1002.29 	-2 	 -10 	 79 	0.595 	 -1.19 	 -0.49875 	29.2 	
-36.6 	 -190.869 	 1003.82 	-2 	 -10 	 79 	0.665 	 -1.015 	 -0.46375 	29.2 	
-39.04 	 -192.882 	 1001.92 	-2 	 -10 	 79 	0.76125 	 -1.12875 	 -0.51625 	29.2 	
-40.443 	 -192.333 	 1003.45 	-2 	 -10 	 79 	0.79625 	 -0.97125 	 -0.5425 	29.2 	
-41.419 	 -193.858 	 1003.45 	-2 	 -10 	 79 	0.70875 	 -1.05 	 -0.48125 	29.2 	
-41.724 	 -193.187 	 1001.74 	-2 	 -10 	 79 	0.74375 	 -1.07625 	 -0.48125 	29.2 	
-43.676 	 -190.991 	 1001.5 	-2 	 -10 	 79 	0.62125 	 -1.19875 	 -0.34125 	29.2 	
-45.75 	 -192.089 	 1002.05 	-2 	 -10 	 79 	0.65625 	 -1.1725 	 -0.44625 	29.2 	
-46.482 	 -193.248 	 1000.89 	-2 	 -10 	 79 	0.74375 	 -1.11125 	 -0.56 	29.2 	
-45.811 	 -193.492 	 1001.5 	-2 	 -10 	 79 	0.55125 	 -0.95375 	 -0.525 	29.2 	
-47.702 	 -193.675 	 1002.23 	-2 	 -10 	 79 	0.69125 	 -1.09375 	 -0.55125 	29.2 	
-48.373 	 -193.797 	 1001.99 	-2 	 -10 	 79 	0.875 	 -1.12 	 -0.5425 	29.2 	
-51.606 	 -192.211 	 1003.02 	-2 	 -10 	 79 	0.70875 	 -1.1375 	 -0.56 	29.2 	
-50.752 	 -193.004 	 1001.86 	-2 	 -10 	 79 	0.735 	 -1.12875 	 -0.53375 	29.2 	
-48.556 	 -193.675 	 1001.99 	-2 	 -10 	 79 	0.7 	 -1.19875 	 -0.595 	29.2 	
-48.861 	 -191.296 	 1001.56 	-2 	 -10 	 79 	0.77875 	 -0.98 	 -0.4375 	29.2 	
-50.264 	 -191.662 	 1002.66 	-2 	 -10 	 79 	0.8575 	 -1.085 	 -0.385 	29.2 	
-51.423 	 -191.723 	 1000.22 	-2 	 -10 	 79 	0.81375 	 -1.26875 	 -0.56875 	29.2 	
-48.678 	 -191.174 	 1002.72 	-2 	 -10 	 79 	0.81375 	 -1.225 	 -0.455 	29.2 	
-47.519 	 -190.503 	 1003.27 	-2 	 -10 	 79 	0.77875 	 -1.14625 	 -0.51625 	29.2 	
-47.336 	 -190.442 	 1001.68 	-2 	 -10 	 79 	0.77 	 -1.085 	 -0.53375 	29.2 	
-46.421 	 -190.259 	 1002.66 	-2 	 -10 	 79 	0.805 	 -1.19 	 -0.5425 	29.2 	
-46.97 	 -189.649 	 1004.3 	-2 	 -10 	 79 	0.81375 	 -1.11125 	 -0.49875 	29.2 	
-45.14 	 -190.442 	 1002.47 	-2 	 -10 	 79 	0.6825 	 -1.0325 	 -0.5425 	29.2 	
-44.164 	 -189.1 	 1004.18 	-2 	 -10 	 79 	0.735 	 -1.07625 	 -0.49 	29.2 	
-44.774 	 -190.869 	 1002.96 	-2 	 -10 	 79 	0.74375 	 -1.11125 	 -0.4725 	29.2 	
-44.347 	 -189.466 	 1003.63 	-2 	 -10 	 79 	0.79625 	 -1.19875 	 -0.5775 	29.2 	
-45.201 	 -190.198 	 1003.63 	-2 	 -10 	 79 	0.6125 	 -1.18125 	 -0.48125 	29.2 	
-43.737 	 -189.222 	 1000.77 	-2 	 -10 	 79 	0.77 	 -1.12875 	 -0.455 	29.2 	
-42.212 	 -189.527 	 1000.46 	-2 	 -10 	 79 	0.91 	 -1.25125 	 -0.55125 	29.2 	
-43.92 	 -191.357 	 1002.53 	-2 	 -10 	 79 	0.70875 	 -1.19 	 -0.51625 	29.2 	
-43.676 	 -191.052 	 1003.57 	-2 	 -10 	 79 	0.77 	 -1.085 	 -0.48125 	29.2 	
-44.164 	 -192.15 	 1003.33 	-2 	 -10 	 79 	0.56875 	 -1.18125 	 -0.4025 	29.2 	
-43.432 	 -193.431 	 1003.33 	-2 	 -10 	 79 	0.67375 	 -1.2775 	 -0.49875 	29.2 	
-44.652 	 -192.577 	 1001.99 	-2 	 -10 	 79 	0.65625 	 -1.2075 	 -0.6475 	29.2 	
-46.177 	 -193.126 	 1001.99 	-2 	 -10 	 79 	0.65625 	 -1.09375 	 -0.5775 	29.2 	
-46.726 	 -194.834 	 1002.47 	-2 	 -10 	 79 	0.72625 	 -1.2425 	 -0.53375 	29.2 	
-46.787 	 -197.213 	 1001.74 	-2 	 -11 	 79 	0.6125 	 -0.9625 	 -0.56875 	29.2 	
-46.604 	 -196.298 	 1003.14 	-2 	 -11 	 79 	0.58625 	 -1.16375 	 -0.58625 	29.2 	
-48.129 	 -195.505 	 1002.47 	-2 	 -11 	 79 	0.74375 	 -1.2075 	 -0.60375 	29.2 	
-48.922 	 -197.457 	 1002.47 	-2 	 -11 	 79 	0.70875 	 -1.16375 	 -0.595 	29.2 	
-52.155 	 -197.213 	 999.363 	-2 	 -11 	 79 	0.63875 	 -1.09375 	 -0.6125 	29.2 	
-48.678 	 -195.688 	 999.424 	-2 	 -11 	 79 	0.76125 	 -1.21625 	 -0.63875 	29.2 	
-48.068 	 -197.396 	 1000.03 	-2 	 -11 	 79 	0.72625 	 -1.18125 	 -0.67375 	29.2 	
-48.068 	 -194.773 	 1000.1 	-2 	 -11 	 79 	0.72625 	 -1.12 	 -0.60375 	29.2 	
-47.58 	 -194.834 	 1001.44 	-2 	 -10 	 79 	0.7175 	 -1.1025 	 -0.5425 	29.2 	
-47.397 	 -195.688 	 1004 	-2 	 -11 	 79 	0.60375 	 -1.09375 	 -0.56875 	29.2 	
-46.97 	 -194.773 	 1003.82 	-2 	 -10 	 79 	0.90125 	 -1.09375 	 -0.5775 	29.2 	
-44.774 	 -193.98 	 1003.08 	-2 	 -10 	 79 	0.88375 	 -1.1025 	 -0.5775 	29.2 	
-45.018 	 -195.2 	 1003.82 	-2 	 -10 	 79 	0.7875 	 -1.0325 	 -0.65625 	29.2 	
-46.604 	 -190.869 	 1002.35 	-2 	 -10 	 79 	0.8575 	 -1.14625 	 -0.62125 	29.2 	
-44.103 	 -191.418 	 1001.07 	-2 	 -10 	 79 	0.7875 	 -1.11125 	 -0.62125 	29.2 	
-43.432 	 -189.466 	 1001.74 	-2 	 -10 	 79 	0.72625 	 -1.16375 	 -0.6125 	29.2 	
-43.859 	 -189.649 	 1003.02 	-2 	 -10 	 79 	0.69125 	 -1.2425 	 -0.595 	29.2 	
-42.883 	 -189.1 	 1005.52 	-2 	 -10 	 79 	0.72625 	 -1.2075 	 -0.67375 	29.2 	
-44.713 	 -191.601 	 1003.75 	-2 	 -10 	 79 	0.63875 	 -1.1725 	 -0.56 	29.2 	
-44.835 	 -190.442 	 1004.79 	-2 	 -10 	 79 	0.67375 	 -1.11125 	 -0.51625 	29.2 	
-43.005 	 -186.721 	 1004.85 	-2 	 -10 	 79 	0.69125 	 -1.12 	 -0.55125 	29.2 	
-44.225 	 -186.904 	 1002.84 	-2 	 -10 	 79 	0.7175 	 -1.1725 	 -0.55125 	29.2 	
-43.92 	 -188.551 	 1002.84 	-2 	 -10 	 79 	0.76125 	 -1.155 	 -0.525 	29.2 	
-45.14 	 -187.636 	 1003.51 	-2 	 -10 	 79 	0.72625 	 -1.155 	 -0.58625 	29.2 	
-44.591 	 -188.917 	 1002.72 	-2 	 -10 	 79 	0.53375 	 -1.21625 	 -0.4725 	29.2 	
-44.286 	 -190.32 	 1002.29 	-2 	 -10 	 79 	0.63 	 -1.21625 	 -0.5775 	29.2 	
-46.726 	 -190.625 	 1004.67 	-2 	 -10 	 79 	0.74375 	 -1.1725 	 -0.48125 	29.2 	
-45.262 	 -189.771 	 1004.61 	-2 	 -10 	 79 	0.6825 	 -1.21625 	 -0.5075 	29.2 	
-45.689 	 -191.357 	 1001.56 	-2 	 -10 	 79 	0.7525 	 -1.2075 	 -0.56875 	29.2 	
-46.177 	 -190.808 	 1002.9 	-2 	 -10 	 79 	0.72625 	 -1.12 	 -0.525 	29.2 	
-47.702 	 -191.357 	 1003.57 	-2 	 -10 	 79 	0.77875 	 -1.0675 	 -0.63 	29.2 	
-45.689 	 -193.065 	 1000.22 	-2 	 -10 	 79 	0.62125 	 -1.16375 	 -0.665 	29.2 	
-46.848 	 -193.614 	 1003.57 	-2 	 -10 	 79 	0.56875 	 -1.02375 	 -0.595 	29.2 	
-44.835 	 -191.845 	 1003.57 	-2 	 -10 	 79 	0.56875 	 -1.11125 	 -0.62125 	29.2 	
-44.469 	 -192.516 	 1003.27 	-2 	 -10 	 79 	0.805 	 -1.0675 	 -0.4725 	29.2 	
-43.737 	 -192.089 	 1003.33 	-2 	 -10 	 79 	0.6125 	 -1.0675 	 -0.5425 	29.2 	
-43.554 	 -192.882 	 1004.3 	-2 	 -10 	 79 	0.56 	 -1.12875 	 -0.6825 	29.2 	
-44.896 	 -194.224 	 1003.57 	-2 	 -10 	 79 	0.6475 	 -1.1025 	 -0.5075 	29.2 	
-42.09 	 -193.736 	 1004.06 	-2 	 -10 	 79 	0.74375 	 -1.12875 	 -0.5075 	29.2 	
-43.92 	 -193.675 	 1002.72 	-2 	 -10 	 79 	0.67375 	 -1.07625 	 -0.6825 	29.2 	
-42.212 	 -193.675 	 1003.57 	-2 	 -10 	 79 	0.735 	 -1.16375 	 -0.55125 	29.2 	
-42.151 	 -193.797 	 1003.75 	-2 	 -10 	 79 	0.79625 	 -1.19875 	 -0.65625 	29.2 	
-41.663 	 -193.126 	 1002.23 	-2 	 -10 	 79 	0.5775 	 -1.155 	 -0.65625 	29.2 	
-41.419 	 -194.041 	 1002.35 	-2 	 -10 	 79 	0.7525 	 -0.9625 	 -0.58625 	29.2 	
-42.883 	 -193.309 	 1003.39 	-2 	 -10 	 79 	0.91 	 -1.2775 	 -0.67375 	29.2 	
-43.493 	 -193.553 	 1002.29 	-2 	 -10 	 79 	0.77 	 -1.32125 	 -0.53375 	29.2 	
-41.114 	 -192.638 	 1003.02 	-2 	 -10 	 79 	0.84 	 -1.05 	 -0.48125 	29.2 	
-43.066 	 -192.943 	 1004.49 	-2 	 -10 	 79 	0.91875 	 -1.2075 	 -0.49 	29.2 	
-44.774 	 -191.174 	 1003.08 	-2 	 -10 	 79 	0.805 	 -1.2075 	 -0.49875 	29.2 	
-44.53 	 -193.187 	 999.485 	-2 	 -10 	 79 	0.72625 	 -1.02375 	 -0.46375 	29.2 	
-45.445 	 -193.004 	 1001.5 	-2 	 -10 	 79 	0.7175 	 -1.19 	 -0.48125 	29.2 	
-45.994 	 -191.906 	 1000.16 	-2 	 -10 	 79 	0.70875 	 -1.19875 	 -0.48125 	29.2 	
-46.848 	 -192.76 	 1001.8 	-2 	 -10 	 79 	0.76125 	 -1.2075 	 -0.455 	29.2 	
-45.75 	 -192.394 	 1001.99 	-2 	 -10 	 79 	0.5775 	 -1.28625 	 -0.51625 	29.2 	
-46.238 	 -191.906 	 1002.66 	-2 	 -10 	 79 	0.77875 	 -1.1025 	 -0.42875 	29.2 	
-45.689 	 -191.601 	 1005.77 	-2 	 -10 	 79 	0.8575 	 -1.12 	 -0.525 	29.2 	
-44.835 	 -190.381 	 1002.53 	-2 	 -10 	 79 	0.805 	 -1.14625 	 -0.58625 	29.2 	
-44.957 	 -190.137 	 1001.25 	-2 	 -10 	 79 	0.63875 	 -1.11125 	 -0.42 	29.2 	
-42.639 	 -189.832 	 1001.8 	-2 	 -10 	 79 	0.805 	 -1.25125 	 -0.53375 	29.2 	
-44.408 	 -190.076 	 1001.56 	-2 	 -10 	 79 	0.77 	 -1.1375 	 -0.62125 	29.2 	
-43.31 	 -189.527 	 1003.51 	-2 	 -10 	 79 	0.72625 	 -1.1025 	 -0.5425 	29.2 	
-42.822 	 -189.832 	 1003.57 	-2 	 -10 	 79 	0.7875 	 -1.12875 	 -0.5075 	29.2 	
-42.7 	 -189.344 	 1004.24 	-2 	 -10 	 79 	0.76125 	 -1.2075 	 -0.4725 	29.2 	
-40.687 	 -188.246 	 1004.49 	-2 	 -10 	 79 	0.76125 	 -1.19 	 -0.49 	29.2 	
-39.162 	 -189.893 	 1001.92 	-2 	 -10 	 79 	0.805 	 -1.0675 	 -0.4725 	29.2 	
-39.894 	 -189.161 	 1000.58 	-2 	 -10 	 79 	0.735 	 -1.26 	 -0.42875 	29.2 	
-36.966 	 -187.88 	 1003.08 	-2 	 -10 	 79 	0.7 	 -1.02375 	 -0.49 	29.2 	
-38.674 	 -190.381 	 1002.47 	-2 	 -10 	 79 	0.5775 	 -1.015 	 -0.455 	29.2 	
-38.674 	 -189.588 	 1002.84 	-2 	 -10 	 79 	0.72625 	 -1.0675 	 -0.48125 	29.2 	
-38.43 	 -189.344 	 1002.84 	-2 	 -10 	 79 	0.58625 	 -1.05 	 -0.41125 	29.2 	
-39.589 	 -192.272 	 1002.35 	-2 	 -10 	 79 	0.72625 	 -1.0325 	 -0.37625 	29.2 	
-41.297 	 -192.943 	 1004.91 	-2 	 -10 	 79 	0.65625 	 -1.155 	 -0.37625 	29.2 	
-43.554 	 -193.248 	 1002.41 	-2 	 -10 	 79 	0.62125 	 -1.12 	 -0.4025 	29.2 	
-45.872 	 -194.102 	 1002.11 	-2 	 -10 	 79 	0.6125 	 -1.09375 	 -0.48125 	29.2 	
-46.116 	 -194.59 	 1003.14 	-2 	 -10 	 79 	0.69125 	 -1.085 	 -0.42 	29.2 	
-48.8 	 -197.945 	 1001.25 	-2 	 -11 	 79 	0.63875 	 -1.07625 	 -0.41125 	29.2 	
-49.532 	 -196.847 	 1001.92 	-2 	 -11 	 79 	0.53375 	 -1.12 	 -0.5075 	29.2 	
-52.338 	 -196.664 	 1001.01 	-2 	 -11 	 79 	0.6125 	 -1.14625 	 -0.63 	29.2 	
-56.608 	 -198.555 	 998.997 	-3 	 -11 	 78 	0.65625 	 -1.085 	 -0.56 	29.2 	
-55.632 	 -197.274 	 1001.13 	-3 	 -11 	 79 	0.8225 	 -1.225 	 -0.63 	29.2 	
-57.889 	 -198.372 	 1000.16 	-3 	 -11 	 78 	0.6825 	 -1.155 	 -0.49 	29.2 	
-58.865 	 -199.958 	 999.607 	-3 	 -11 	 78 	0.77 	 -1.12 	 -0.49875 	29.2 	
-56.425 	 -198.555 	 1001.25 	-3 	 -11 	 78 	0.77 	 -1.1725 	 -0.5425 	29.2 	
-56.852 	 -198.25 	 999.485 	-3 	 -11 	 78 	0.7525 	 -1.21625 	 -0.5425 	29.2 	
-56.913 	 -199.775 	 1000.03 	-3 	 -11 	 78 	0.7175 	 -1.1375 	 -0.72625 	29.2 	
-55.51 	 -198.738 	 1000.1 	-3 	 -11 	 78 	0.76125 	 -1.12875 	 -0.63875 	29.2 	
-55.083 	 -196.969 	 1001.5 	-3 	 -11 	 79 	0.7175 	 -1.085 	 -0.525 	29.2 	
-55.266 	 -195.444 	 1000.89 	-3 	 -11 	 79 	0.88375 	 -1.015 	 -0.6825 	29.3 	
-53.68 	 -193.98 	 1002.11 	-3 	 -10 	 79 	0.7 	 -1.11125 	 -0.6125 	29.3 	
-51.728 	 -192.577 	 1003.82 	-2 	 -10 	 79 	0.7175 	 -1.23375 	 -0.51625 	29.3 	
-50.264 	 -191.662 	 1003.08 	-2 	 -10 	 79 	0.7525 	 -1.1725 	 -0.63875 	29.3 	
-50.142 	 -191.784 	 1001.8 	-2 	 -10 	 79 	0.88375 	 -1.14625 	 -0.6125 	29.3 	
-48.251 	 -190.32 	 1003.94 	-2 	 -10 	 79 	0.84875 	 -1.04125 	 -0.56 	29.3 	
-46.604 	 -188.856 	 1003.94 	-2 	 -10 	 79 	0.74375 	 -0.9975 	 -0.63875 	29.3 	
-46.848 	 -187.087 	 1002.9 	-2 	 -10 	 79 	0.58625 	 -1.25125 	 -0.56 	29.3 	
-44.591 	 -186.416 	 1005.22 	-2 	 -10 	 79 	0.805 	 -1.23375 	 -0.62125 	29.2 	
-43.31 	 -185.806 	 1002.11 	-2 	 -10 	 79 	0.735 	 -1.1725 	 -0.53375 	29.2 	
-42.639 	 -187.087 	 1004.37 	-2 	 -10 	 79 	0.74375 	 -1.19875 	 -0.60375 	29.2 	
-43.554 	 -187.392 	 1003.33 	-2 	 -10 	 79 	0.77875 	 -1.19 	 -0.56 	29.2 	
-41.175 	 -187.209 	 1005.28 	-2 	 -10 	 79 	0.6825 	 -1.12 	 -0.49 	29.2 	
-43.127 	 -186.294 	 1004.43 	-2 	 -10 	 79 	0.63 	 -1.12 	 -0.5775 	29.2 	
-43.554 	 -186.904 	 1003.63 	-2 	 -10 	 79 	0.665 	 -1.12 	 -0.63875 	29.2 	
-42.883 	 -186.965 	 1004.49 	-2 	 -10 	 79 	0.9275 	 -1.18125 	 -0.51625 	29.2 	
-42.639 	 -188.551 	 1004.49 	-2 	 -10 	 79 	0.805 	 -1.25125 	 -0.5775 	29.3 	
-43.188 	 -186.294 	 1003.14 	-2 	 -10 	 79 	0.65625 	 -1.12 	 -0.58625 	29.3 	
-43.066 	 -186.111 	 1003.27 	-2 	 -10 	 79 	0.595 	 -1.085 	 -0.5075 	29.3 	
-41.663 	 -189.649 	 1004.55 	-2 	 -10 	 79 	0.58625 	 -1.085 	 -0.48125 	29.3 	
-44.713 	 -188.917 	 1004.91 	-2 	 -10 	 79 	0.70875 	 -1.19875 	 -0.49875 	29.3 	
-43.066 	 -190.564 	 1004.43 	-2 	 -10 	 79 	0.6475 	 -1.11125 	 -0.58625 	29.3 	
-43.127 	 -190.503 	 1002.66 	-2 	 -10 	 79 	0.67375 	 -1.02375 	 -0.56875 	29.3 	
-43.859 	 -192.089 	 1001.13 	-2 	 -10 	 79 	0.665 	 -1.1025 	 -0.56875 	29.3 	
-42.395 	 -193.614 	 1002.66 	-2 	 -10 	 79 	0.77 	 -1.2775 	 -0.70875 	29.2 	
-41.541 	 -191.662 	 1002.96 	-2 	 -10 	 79 	0.72625 	 -1.25125 	 -0.735 	29.2 	
-42.456 	 -193.858 	 1000.7 	-2 	 -10 	 79 	0.6825 	 -1.3125 	 -0.60375 	29.2 	
-44.652 	 -192.089 	 1002.35 	-2 	 -10 	 79 	0.67375 	 -1.25125 	 -0.6825 	29.2 	
-42.761 	 -195.81 	 1002.9 	-2 	 -11 	 79 	0.83125 	 -1.0325 	 -0.7 	29.2 	
-40.138 	 -194.224 	 1003.94 	-2 	 -10 	 79 	0.62125 	 -1.12875 	 -0.62125 	29.2 	
-40.748 	 -195.261 	 1003.51 	-2 	 -11 	 79 	0.83125 	 -1.07625 	 -0.5775 	29.2 	
-41.907 	 -194.224 	 1004.06 	-2 	 -10 	 79 	0.7875 	 -1.11125 	 -0.56875 	29.2 	
-42.822 	 -193.614 	 1002.41 	-2 	 -10 	 79 	0.805 	 -1.2425 	 -0.6125 	29.2 	
-41.724 	 -192.821 	 1002.29 	-2 	 -10 	 79 	0.8225 	 -1.12875 	 -0.63 	29.2 	
-43.798 	 -193.37 	 999.973 	-2 	 -10 	 79 	0.77 	 -1.1025 	 -0.6125 	29.2 	
-45.14 	 -194.468 	 1001.38 	-2 	 -10 	 79 	0.665 	 -1.12875 	 -0.595 	29.2 	
-45.323 	 -194.224 	 1001.19 	-2 	 -10 	 79 	0.76125 	 -1.00625 	 -0.525 	29.2 	
-44.53 	 -197.823 	 1002.41 	-2 	 -11 	 79 	0.63 	 -1.3125 	 -0.51625 	29.2 	
-45.445 	 -196.176 	 1003.94 	-2 	 -11 	 79 	0.72625 	 -1.1375 	 -0.55125 	29.2 	
-48.861 	 -192.821 	 1003.33 	-2 	 -10 	 79 	0.72625 	 -1.12875 	 -0.5775 	29.2 	
-49.288 	 -193.858 	 1001.99 	-2 	 -10 	 79 	0.83125 	 -1.05875 	 -0.49875 	29.2 	
-47.763 	 -194.468 	 1003.14 	-2 	 -10 	 79 	0.7875 	 -1.04125 	 -0.58625 	29.2 	
-48.434 	 -192.882 	 1003.27 	-2 	 -10 	 79 	0.63875 	 -1.23375 	 -0.49875 	29.2 	
-47.763 	 -193.919 	 1001.01 	-2 	 -10 	 79 	0.67375 	 -1.085 	 -0.5425 	29.2 	
-50.752 	 -191.601 	 1002.72 	-2 	 -10 	 79 	0.7 	 -1.19875 	 -0.595 	29.2 	
-46.299 	 -192.272 	 1004.18 	-2 	 -10 	 79 	0.63875 	 -1.23375 	 -0.44625 	29.2 	
-47.336 	 -192.272 	 1004.3 	-2 	 -10 	 79 	0.53375 	 -1.2075 	 -0.49 	29.2 	
-47.702 	 -192.394 	 1002.78 	-2 	 -10 	 79 	0.6475 	 -1.07625 	 -0.525 	29.2 	
-47.763 	 -192.333 	 1000.46 	-2 	 -10 	 79 	0.63875 	 -1.19 	 -0.5425 	29.2 	
-48.068 	 -191.54 	 1001.68 	-2 	 -10 	 79 	0.735 	 -1.1025 	 -0.6825 	29.2 	
-45.079 	 -191.723 	 1001.25 	-2 	 -10 	 79 	0.735 	 -1.23375 	 -0.63 	29.2 	
-45.628 	 -190.808 	 1002.35 	-2 	 -10 	 79 	0.70875 	 -1.25125 	 -0.595 	29.2 	
-42.395 	 -191.174 	 1002.9 	-2 	 -10 	 79 	0.5425 	 -1.18125 	 -0.58625 	29.2 	
-44.286 	 -192.15 	 1005.22 	-2 	 -10 	 79 	0.7875 	 -1.2425 	 -0.56 	29.2 	
-42.334 	 -192.272 	 1004.18 	-2 	 -10 	 79 	0.7175 	 -1.21625 	 -0.7 	29.2 	
-41.297 	 -191.418 	 1004.06 	-2 	 -10 	 79 	0.56875 	 -1.2075 	 -0.63875 	29.2 	
-39.589 	 -190.32 	 1003.27 	-2 	 -10 	 79 	0.875 	 -1.14625 	 -0.5075 	29.2 	
-40.748 	 -190.259 	 1000.95 	-2 	 -10 	 79 	0.665 	 -1.33 	 -0.5425 	29.2 	
-40.504 	 -191.052 	 1002.11 	-2 	 -10 	 79 	0.5775 	 -1.35625 	 -0.6125 	29.2 	
-37.027 	 -190.625 	 1002.66 	-2 	 -10 	 79 	0.6825 	 -1.21625 	 -0.49 	29.2 	
-38.186 	 -192.272 	 1002.47 	-2 	 -10 	 79 	0.60375 	 -1.18125 	 -0.42875 	29.2 	
-38.979 	 -191.845 	 1004.06 	-2 	 -10 	 79 	0.6475 	 -1.11125 	 -0.55125 	29.2 	
-39.528 	 -192.699 	 1005.4 	-2 	 -10 	 79 	0.7525 	 -1.1725 	 -0.525 	29.2 	
-39.162 	 -192.211 	 1004.37 	-2 	 -10 	 79 	0.63875 	 -1.11125 	 -0.55125 	29.2 	
-39.406 	 -192.394 	 1003.33 	-2 	 -10 	 79 	0.65625 	 -1.11125 	 -0.5075 	29.2 	
-41.846 	 -192.821 	 1001.07 	-2 	 -10 	 79 	0.72625 	 -1.085 	 -0.525 	29.2 	
-42.09 	 -194.651 	 1000.1 	-2 	 -11 	 79 	0.76125 	 -1.18125 	 -0.455 	29.2 	
-42.822 	 -194.712 	 1000.03 	-2 	 -11 	 79 	0.77 	 -1.2775 	 -0.455 	29.2 	
-43.188 	 -193.004 	 1003.27 	-2 	 -10 	 79 	0.6475 	 -1.25125 	 -0.35875 	29.2 	
-45.628 	 -194.102 	 1004.61 	-2 	 -10 	 79 	0.74375 	 -1.1725 	 -0.48125 	29.2 	
-46.726 	 -195.261 	 1002.47 	-2 	 -11 	 79 	0.84875 	 -1.12875 	 -0.5075 	29.2 	
-47.946 	 -193.98 	 1003.51 	-2 	 -10 	 79 	0.9275 	 -1.19 	 -0.44625 	29.2 	
-49.837 	 -192.455 	 1001.99 	-2 	 -10 	 79 	0.805 	 -1.1725 	 -0.4025 	29.3 	
-47.824 	 -191.784 	 1001.25 	-2 	 -10 	 79 	0.7525 	 -1.07625 	 -0.51625 	29.3 	
-50.569 	 -191.784 	 1000.16 	-2 	 -10 	 79 	0.805 	 -1.05875 	 -0.51625 	29.3 	
-49.288 	 -191.967 	 1001.74 	-2 	 -10 	 79 	0.7175 	 -1.155 	 -0.5425 	29.3 	
-49.532 	 -192.699 	 1002.41 	-2 	 -10 	 79 	0.77875 	 -1.12875 	 -0.56875 	29.3 	
-48.373 	 -192.699 	 1003.21 	-2 	 -10 	 79 	0.735 	 -1.21625 	 -0.55125 	29.3 	
-49.288 	 -191.113 	 1003.88 	-2 	 -10 	 79 	0.72625 	 -1.1725 	 -0.46375 	29.3 	
-48.19 	 -190.686 	 1003.33 	-2 	 -10 	 79 	0.84 	 -1.07625 	 -0.58625 	29.3 	
-48.739 	 -187.148 	 1003.45 	-2 	 -10 	 79 	0.7 	 -1.21625 	 -0.60375 	29.2 	
-47.397 	 -188.673 	 1003.39 	-2 	 -10 	 79 	0.7 	 -1.085 	 -0.6125 	29.2 	
-45.994 	 -188.795 	 1001.99 	-2 	 -10 	 79 	0.70875 	 -1.16375 	 -0.56875 	29.2 	
-45.628 	 -188.917 	 1003.75 	-2 	 -10 	 79 	0.72625 	 -1.2425 	 -0.6125 	29.2 	
-45.323 	 -187.453 	 1001.8 	-2 	 -10 	 79 	0.735 	 -1.2425 	 -0.5075 	29.2 	
-45.384 	 -187.209 	 1004.06 	-2 	 -10 	 79 	0.70875 	 -1.12 	 -0.58625 	29.2 	
-45.262 	 -185.989 	 1001.74 	-2 	 -10 	 79 	0.74375 	 -1.19 	 -0.3675 	29.2 	
-42.456 	 -188.856 	 1002.84 	-2 	 -10 	 79 	0.72625 	 -1.155 	 -0.42875 	29.2 	
-41.114 	 -187.453 	 1004.06 	-2 	 -10 	 79 	0.63 	 -1.225 	 -0.48125 	29.2 	
-42.7 	 -187.758 	 1002.05 	-2 	 -10 	 79 	0.63875 	 -1.09375 	 -0.41125 	29.2 	
-43.188 	 -188.429 	 1003.57 	-2 	 -10 	 79 	0.77 	 -1.3125 	 -0.4725 	29.2 	
-41.846 	 -191.052 	 1002.29 	-2 	 -10 	 79 	0.48125 	 -1.19875 	 -0.5075 	29.2 	
-42.517 	 -191.052 	 1002.17 	-2 	 -10 	 79 	0.7175 	 -1.26875 	 -0.48125 	29.2 	
-42.517 	 -190.015 	 1001.44 	-2 	 -10 	 79 	0.8575 	 -1.28625 	 -0.5075 	29.2 	
-42.822 	 -190.869 	 1002.66 	-2 	 -10 	 79 	0.74375 	 -1.16375 	 -0.42875 	29.2 	
-45.14 	 -192.76 	 1001.07 	-2 	 -10 	 79 	0.84 	 -1.1025 	 -0.3675 	29.2 	
-46.909 	 -195.749 	 1001.56 	-2 	 -11 	 79 	0.805 	 -1.2075 	 -0.49875 	29.2 	
-46.604 	 -195.81 	 1001.25 	-2 	 -11 	 79 	0.60375 	 -1.07625 	 -0.595 	29.2 	
-45.811 	 -195.078 	 1001.07 	-2 	 -11 	 79 	0.665 	 -1.18125 	 -0.49875 	29.2 	
-48.129 	 -196.969 	 1003.08 	-2 	 -11 	 79 	0.63 	 -1.2075 	 -0.56875 	29.2 	
-48.983 	 -199.043 	 1001.19 	-2 	 -11 	 78 	0.76125 	 -1.09375 	 -0.5075 	29.2 	
-49.654 	 -198.86 	 1001.31 	-2 	 -11 	 78 	0.72625 	 -1.26875 	 -0.6125 	29.2 	
-48.8 	 -199.836 	 1000.52 	-2 	 -11 	 78 	0.67375 	 -1.19 	 -0.6125 	29.2 	
-49.044 	 -198.372 	 1001.07 	-2 	 -11 	 79 	0.62125 	 -1.225 	 -0.665 	29.2 	
-51.606 	 -199.592 	 998.997 	-2 	 -11 	 78 	0.8575 	 -1.19 	 -0.665 	29.2 	
-50.691 	 -197.945 	 1001.92 	-2 	 -11 	 79 	0.7875 	 -1.0675 	 -0.5075 	29.2 	
-50.752 	 -199.47 	 999.424 	-2 	 -11 	 78 	0.735 	 -1.05875 	 -0.58625 	29.2 	
-49.654 	 -198.189 	 1000.52 	-2 	 -11 	 79 	0.8225 	 -1.12875 	 -0.77875 	29.2 	
-47.031 	 -196.481 	 1000.46 	-2 	 -11 	 79 	0.91 	 -1.23375 	 -0.74375 	29.2 	
-46.726 	 -196.176 	 999.424 	-2 	 -11 	 79 	0.72625 	 -1.085 	 -0.63875 	29.2 	
-46.848 	 -195.139 	 1002.05 	-2 	 -11 	 79 	0.665 	 -1.16375 	 -0.665 	29.2 	
-46.848 	 -194.773 	 998.997 	-2 	 -11 	 79 	0.7525 	 -1.09375 	 -0.6125 	29.2 	
-45.14 	 -191.845 	 1002.35 	-2 	 -10 	 79 	0.58625 	 -1.05 	 -0.5775 	29.2 	
-44.957 	 -192.76 	 1003.63 	-2 	 -10 	 79 	0.74375 	 -1.085 	 -0.63875 	29.2 	
-44.652 	 -190.869 	 1004.67 	-2 	 -10 	 79 	0.7 	 -1.05 	 -0.56875 	29.2 	
-44.164 	 -190.503 	 1001.25 	-2 	 -10 	 79 	0.7875 	 -1.05875 	 -0.7 	29.2 	
-42.273 	 -191.296 	 1002.9 	-2 	 -10 	 79 	0.7175 	 -1.04125 	 -0.5775 	29.2 	
-45.811 	 -190.747 	 1003.75 	-2 	 -10 	 79 	0.6125 	 -1.1025 	 -0.595 	29.2 	
-43.798 	 -188.246 	 1004 	-2 	 -10 	 79 	0.665 	 -1.14625 	 -0.58625 	29.2 	
-43.493 	 -189.466 	 1005.28 	-2 	 -10 	 79 	0.58625 	 -1.16375 	 -0.49875 	29.2 	
-43.676 	 -189.344 	 1005.1 	-2 	 -10 	 79 	0.5775 	 -1.1025 	 -0.56 	29.3 	
-41.724 	 -189.893 	 1004.85 	-2 	 -10 	 79 	0.60375 	 -1.2075 	 -0.51625 	29.3 	
-42.883 	 -188.429 	 1005.34 	-2 	 -10 	 79 	0.6475 	 -1.05 	 -0.4725 	29.3 	
-42.395 	 -189.161 	 1005.04 	-2 	 -10 	 79 	0.735 	 -1.05 	 -0.56 	29.3 	
-43.92 	 -188.917 	 1003.63 	-2 	 -10 	 79 	0.595 	 -1.1025 	 -0.5075 	29.3 	
-43.981 	 -187.27 	 1003.39 	-2 	 -10 	 79 	0.735 	 -1.14625 	 -0.55125 	29.3 	
-43.981 	 -187.575 	 1000.4 	-2 	 -10 	 79 	0.76125 	 -1.18125 	 -0.6475 	29.3 	
-43.737 	 -187.453 	 1002.9 	-2 	 -10 	 79 	0.805 	 -1.2075 	 -0.595 	29.3 	
-44.164 	 -189.954 	 1005.46 	-2 	 -10 	 79 	0.6475 	 -1.19 	 -0.39375 	29.2 	
-43.127 	 -190.503 	 1003.08 	-2 	 -10 	 79 	0.79625 	 -1.14625 	 -0.41125 	29.2 	
-43.249 	 -188.734 	 1002.9 	-2 	 -10 	 79 	0.945 	 -1.04125 	 -0.56875 	29.2 	
-42.09 	 -190.015 	 1003.02 	-2 	 -10 	 79 	0.72625 	 -1.09375 	 -0.51625 	29.2 	
-40.26 	 -189.527 	 1000.77 	-2 	 -10 	 79 	0.77 	 -1.18125 	 -0.4725 	29.2 	
-39.284 	 -188.002 	 998.204 	-2 	 -10 	 79 	0.735 	 -1.1025 	 -0.67375 	29.2 	
-40.809 	 -195.078 	 1004.06 	-2 	 -10 	 79 	0.5425 	 -1.02375 	 -0.56 	29.2 	
-42.7 	 -193.797 	 1011.62 	-2 	 -10 	 79 	0.63875 	 -1.04125 	 -0.5425 	29.2 	
-39.772 	 -192.394 	 1010.65 	-2 	 -10 	 79 	0.91 	 -1.085 	 -0.63 	29.2 	
-39.223 	 -194.163 	 998.997 	-2 	 -10 	 79 	0.8925 	 -1.25125 	 -0.58625 	29.2 	
-41.785 	 -183.915 	 991.738 	-2 	 -10 	 79 	0.98 	 -1.04125 	 -0.53375 	29.2 	
-42.822 	 -189.71 	 992.104 	-2 	 -10 	 79 	0.56875 	 -1.04125 	 -0.5775 	29.2 	
-42.395 	 -199.348 	 995.52 	-2 	 -11 	 78 	0.5775 	 -1.155 	 -0.53375 	29.2 	
-40.931 	 -189.832 	 1001.68 	-2 	 -10 	 79 	0.79625 	 -1.11125 	 -0.48125 	29.2 	
-41.968 	 -190.32 	 1009.49 	-2 	 -10 	 79 	0.455 	 -1.02375 	 -0.51625 	29.2 	
-46.36 	 -207.156 	 1008.02 	-2 	 -11 	 78 	0.55125 	 -1.2425 	 -0.525 	29.2 	
-60.268 	 -203.923 	 1002.41 	-3 	 -11 	 78 	0.805 	 -1.14625 	 -0.51625 	29.2 	
-64.599 	 -196.664 	 1000.89 	-3 	 -11 	 79 	0.91875 	 -0.86625 	 -0.5425 	29.2 	
-50.264 	 -203.313 	 1002.9 	-2 	 -11 	 78 	0.70875 	 -0.9275 	 -0.55125 	29.2 	
-56.974 	 -206.058 	 987.468 	-3 	 -11 	 78 	1.07625 	 -1.05 	 -0.595 	29.2 	
-55.693 	 -178.974 	 983.808 	-3 	 -10 	 79 	1.16375 	 -1.26 	 -0.665 	29.2 	
-56.73 	 -195.444 	 983.625 	-3 	 -11 	 78 	0.105 	 -1.93375 	 -0.665 	29.2 	
-30.134 	 -203.496 	 1000.34 	-1 	 -11 	 78 	0.245 	 -2.16125 	 -0.58625 	29.2 	
-29.829 	 -201.3 	 1032.24 	-1 	 -11 	 79 	0.175 	 -0.81375 	 -0.41125 	29.2 	
-67.954 	 -223.077 	 1062.44 	-3 	 -11 	 78 	0.595 	 0.7875 	 -0.21875 	29.2 	
-80.215 	 -204.289 	 1060.97 	-4 	 -10 	 79 	1.89875 	 -0.20125 	 -0.49875 	29.2 	
-50.081 	 -174.582 	 981.124 	-2 	 -10 	 80 	1.855 	 -2.5725 	 -0.83125 	29.2 	
-18.544 	 -155.123 	 896.212 	-1 	 -9 	 80 	1.575 	 -2.84375 	 -0.70875 	29.2 	
-27.328 	 -141.52 	 904.813 	-1 	 -8 	 81 	0.4375 	 -0.7875 	 -0.49 	29.2 	
-39.528 	 -197.64 	 993.446 	-2 	 -11 	 78 	-1.51375 	 0.13125 	 -0.49875 	29.2 	
-72.102 	 -225.822 	 1050.66 	-3 	 -12 	 78 	0.56875 	 -1.02375 	 -0.41125 	29.2 	
-45.079 	 -147.803 	 1080.37 	-2 	 -7 	 82 	0.8575 	 -1.9425 	 -0.72625 	29.2 	
-33.489 	 -223.382 	 1061.77 	-1 	 -11 	 78 	-0.945 	 -1.9775 	 -0.56875 	29.2 	
-29.036 	 -236.985 	 1022.6 	-1 	 -13 	 77 	1.9075 	 -0.5775 	 -0.35 	29.2 	
-42.334 	 -135.359 	 994.91 	-2 	 -7 	 82 	3.24625 	 0.04375 	 -0.28875 	29.2 	
-47.458 	 -145.058 	 971.242 	-2 	 -8 	 81 	0.385 	 -0.8925 	 -0.41125 	29.2 	
-33.123 	 -226.371 	 952.454 	-1 	 -13 	 76 	-0.21 	 -1.96 	 -0.455 	29.2 	
-35.258 	 -162.199 	 960.079 	-2 	 -9 	 80 	1.9425 	 -1.93375 	 -0.60375 	29.2 	
-33.428 	 -132.614 	 1016.56 	-1 	 -7 	 82 	-0.42875 	 -1.58375 	 -0.6475 	29.2 	
-30.256 	 -248.941 	 1049.2 	-1 	 -13 	 77 	-1.5575 	 -1.40875 	 -0.53375 	29.2 	
-34.953 	 -217.099 	 1038.59 	-1 	 -11 	 78 	2.23125 	 -0.6825 	 -0.41125 	29.3 	
-38.674 	 -125.66 	 1026.57 	-2 	 -6 	 83 	1.96 	 -0.2975 	 -0.39375 	29.3 	
-35.197 	 -203.008 	 993.263 	-1 	 -11 	 78 	-0.70875 	 -0.8225 	 -0.315 	29.3 	
-42.517 	 -211.731 	 959.469 	-2 	 -12 	 77 	1.53125 	 -1.51375 	 -0.42 	29.3 	
-27.145 	 -120.597 	 959.774 	-1 	 -7 	 82 	1.645 	 -1.925 	 -0.5425 	29.3 	
-29.829 	 -187.27 	 988.627 	-1 	 -10 	 79 	-1.68 	 -1.58375 	 -0.3325 	29.3 	
-38.308 	 -249.734 	 1031.75 	-2 	 -13 	 76 	-0.4725 	 -0.6125 	 -0.2275 	29.3 	
-55.266 	 -182.878 	 1050.72 	-2 	 -9 	 80 	2.0825 	 -0.56 	 -0.2625 	29.3 	
-45.933 	 -175.009 	 1045.6 	-2 	 -9 	 80 	0.4025 	 -1.21625 	 -0.55125 	29.2 	
-42.944 	 -240.645 	 999.302 	-2 	 -13 	 76 	0.385 	 -1.26875 	 -0.39375 	29.2 	
-49.41 	 -186.904 	 973.133 	-2 	 -10 	 79 	2.61625 	 -0.7525 	 -0.25375 	29.2 	
-54.168 	 -147.986 	 973.804 	-3 	 -8 	 81 	0.9275 	 -1.0325 	 -0.4025 	29.2 	
-57.523 	 -220.027 	 979.111 	-3 	 -12 	 77 	-0.76125 	 -1.505 	 -0.525 	29.2 	
-62.647 	 -215.574 	 987.834 	-3 	 -12 	 77 	1.07625 	 -1.435 	 -0.56 	29.2 	
-58.926 	 -166.53 	 1002.84 	-3 	 -9 	 80 	0.8575 	 -1.4175 	 -0.49875 	29.2 	
-55.998 	 -214.842 	 1011.5 	-3 	 -11 	 78 	-0.7875 	 -1.26875 	 -0.5075 	29.2 	
-63.135 	 -233.386 	 1015.1 	-3 	 -12 	 77 	0.86625 	 -0.76125 	 -0.53375 	29.2 	
-64.843 	 -181.17 	 1010.04 	-3 	 -10 	 79 	1.6275 	 -0.93625 	 -0.5775 	29.2 	
-58.255 	 -193.126 	 997.045 	-3 	 -10 	 79 	0.23625 	 -1.1725 	 -0.69125 	29.2 	
-57.34 	 -221.674 	 985.821 	-3 	 -12 	 77 	0.4025 	 -1.23375 	 -0.7 	29.2 	
-60.756 	 -185.44 	 988.932 	-3 	 -10 	 79 	1.435 	 -1.26875 	 -0.58625 	29.2 	
-53.924 	 -185.989 	 999.851 	-3 	 -10 	 79 	0.2975 	 -1.2775 	 -0.63 	29.2 	
-54.717 	 -222.345 	 1009.18 	-3 	 -12 	 77 	0.2625 	 -1.05875 	 -0.5425 	29.2 	
-56.73 	 -195.749 	 1017.66 	-3 	 -10 	 79 	1.3125 	 -0.8575 	 -0.595 	29.2 	
-51.789 	 -182.817 	 1012.72 	-2 	 -10 	 79 	1.015 	 -1.26 	 -0.62125 	29.3 	
-47.214 	 -201.544 	 998.936 	-2 	 -11 	 78 	0.6475 	 -1.3125 	 -0.67375 	29.3 	
-46.055 	 -192.699 	 993.69 	-2 	 -10 	 79 	0.93625 	 -1.05 	 -0.56875 	29.3 	
-43.371 	 -178.242 	 993.629 	-2 	 -10 	 79 	0.875 	 -1.19 	 -0.63 	29.3 	
-41.236 	 -191.357 	 998.265 	-2 	 -10 	 79 	0.48125 	 -1.30375 	 -0.595 	29.3 	
-43.066 	 -196.42 	 1002.78 	-2 	 -11 	 79 	0.805 	 -1.14625 	 -0.56875 	29.3 	
-40.565 	 -181.048 	 1009.43 	-2 	 -10 	 79 	0.8925 	 -1.16375 	 -0.5425 	29.3 	
-37.21 	 -188.917 	 1006.44 	-2 	 -10 	 79 	0.4725 	 -1.37375 	 -0.55125 	29.3 	
-37.698 	 -190.381 	 1002.84 	-2 	 -10 	 79 	0.875 	 -1.11125 	 -0.41125 	29.3 	
-39.528 	 -181.78 	 1007.72 	-2 	 -10 	 79 	0.83125 	 -1.04125 	 -0.49 	29.3 	
-38.491 	 -186.05 	 1004.18 	-2 	 -10 	 79 	0.4725 	 -1.0325 	 -0.46375 	29.3 	
-39.223 	 -188.246 	 1003.33 	-2 	 -10 	 79 	0.5775 	 -1.21625 	 -0.41125 	29.3 	
-37.21 	 -182.512 	 1007.66 	-2 	 -10 	 79 	0.49875 	 -1.2075 	 -0.455 	29.3 	
-38.186 	 -189.405 	 1007.17 	-2 	 -10 	 79 	0.41125 	 -1.225 	 -0.46375 	29.3 	
-40.016 	 -192.882 	 1009.06 	-2 	 -10 	 79 	0.7525 	 -1.09375 	 -0.455 	29.3 	
-41.48 	 -187.087 	 1008.63 	-2 	 -10 	 79 	0.79625 	 -0.98 	 -0.49 	29.3 	
-43.859 	 -186.416 	 1002.35 	-2 	 -10 	 79 	0.81375 	 -1.1375 	 -0.49875 	29.2 	
-41.236 	 -188.368 	 998.326 	-2 	 -10 	 79 	0.86625 	 -1.25125 	 -0.56 	29.2 	
-42.334 	 -183.488 	 995.886 	-2 	 -10 	 79 	0.83125 	 -1.155 	 -0.51625 	29.2 	
-43.188 	 -185.989 	 996.191 	-2 	 -10 	 79 	0.67375 	 -1.11125 	 -0.69125 	29.2 	
-45.506 	 -192.333 	 998.204 	-2 	 -10 	 79 	0.6475 	 -1.14625 	 -0.69125 	29.2 	
-47.763 	 -190.686 	 1005.77 	-2 	 -10 	 79 	0.60375 	 -1.14625 	 -0.76125 	29.2 	
-45.75 	 -193.126 	 1006.44 	-2 	 -10 	 79 	0.4725 	 -1.18125 	 -0.60375 	29.2 	
-46.36 	 -197.152 	 1006.01 	-2 	 -11 	 79 	0.58625 	 -1.0325 	 -0.67375 	29.2 	
-45.75 	 -192.577 	 1003.51 	-2 	 -10 	 79 	0.81375 	 -1.25125 	 -0.7875 	29.2 	
-44.652 	 -193.309 	 1001.31 	-2 	 -10 	 79 	0.49875 	 -1.11125 	 -0.62125 	29.2 	
-45.018 	 -197.945 	 1000.28 	-2 	 -11 	 79 	0.7525 	 -1.085 	 -0.5775 	29.2 	
-46.543 	 -194.834 	 1000.28 	-2 	 -11 	 79 	0.735 	 -1.05875 	 -0.55125 	29.2 	
-45.628 	 -195.2 	 1002.78 	-2 	 -11 	 79 	0.7875 	 -1.19 	 -0.60375 	29.2 	
-46.726 	 -198.372 	 1003.94 	-2 	 -11 	 79 	0.70875 	 -1.1725 	 -0.49 	29.2 	
-46.726 	 -200.202 	 1003.75 	-2 	 -11 	 78 	0.74375 	 -1.05 	 -0.51625 	29.2 	
-49.349 	 -195.566 	 1001.62 	-2 	 -11 	 79 	0.88375 	 -1.00625 	 -0.56875 	29.2 	
-47.702 	 -195.993 	 998.997 	-2 	 -11 	 79 	0.77 	 -1.05875 	 -0.58625 	29.2 	
-49.959 	 -196.603 	 996.923 	-2 	 -11 	 79 	0.7 	 -1.155 	 -0.5425 	29.2 	
-47.641 	 -194.773 	 994.605 	-2 	 -11 	 79 	0.665 	 -1.19875 	 -0.44625 	29.2 	
-50.508 	 -195.749 	 997.716 	-2 	 -11 	 79 	0.7 	 -1.30375 	 -0.56875 	29.2 	
-51.179 	 -197.396 	 999.302 	-2 	 -11 	 79 	0.665 	 -1.14625 	 -0.41125 	29.2 	
-52.277 	 -197.396 	 1004.12 	-2 	 -11 	 79 	0.7875 	 -1.19 	 -0.44625 	29.2 	
-52.216 	 -197.274 	 1007.72 	-2 	 -11 	 79 	0.69125 	 -1.12875 	 -0.34125 	29.2 	
-50.264 	 -196.542 	 1005.4 	-2 	 -11 	 79 	0.72625 	 -1.05 	 -0.455 	29.2 	
-52.277 	 -196.603 	 1004.55 	-2 	 -11 	 79 	0.7175 	 -0.9975 	 -0.44625 	29.2 	
-52.765 	 -193.675 	 1002.66 	-2 	 -10 	 79 	0.8575 	 -1.16375 	 -0.42875 	29.2 	
-51.606 	 -193.126 	 1000.1 	-2 	 -10 	 79 	0.8925 	 -1.21625 	 -0.46375 	29.2 	
-50.813 	 -192.943 	 999.424 	-2 	 -10 	 79 	0.84875 	 -1.23375 	 -0.53375 	29.2 	
-50.996 	 -190.93 	 1001.19 	-2 	 -10 	 79 	0.7875 	 -1.18125 	 -0.53375 	29.2 	
-50.203 	 -191.784 	 998.448 	-2 	 -10 	 79 	0.6825 	 -1.2075 	 -0.62125 	29.2 	
-46.421 	 -188.246 	 1002.66 	-2 	 -10 	 79 	0.805 	 -1.23375 	 -0.49875 	29.2 	
-44.286 	 -190.076 	 1004.24 	-2 	 -10 	 79 	0.735 	 -1.295 	 -0.5775 	29.2 	
-45.018 	 -187.819 	 1003.39 	-2 	 -10 	 79 	0.7 	 -1.12875 	 -0.7 	29.2 	
-41.358 	 -186.66 	 1004.06 	-2 	 -10 	 79 	0.86625 	 -1.19875 	 -0.7525 	29.2 	
-39.528 	 -187.453 	 1003.45 	-2 	 -10 	 79 	0.79625 	 -1.14625 	 -0.7875 	29.2 	
-38.308 	 -185.257 	 1000.46 	-2 	 -10 	 79 	0.72625 	 -1.1725 	 -0.7 	29.2 	
-37.576 	 -182.329 	 1003.82 	-2 	 -10 	 79 	0.665 	 -1.1025 	 -0.70875 	29.2 	
-34.404 	 -184.464 	 1003.45 	-1 	 -10 	 79 	0.69125 	 -1.0325 	 -0.56875 	29.2 	
-35.746 	 -185.928 	 1004.18 	-2 	 -10 	 79 	0.72625 	 -1.05875 	 -0.595 	29.2 	
-35.197 	 -185.013 	 1008.33 	-1 	 -10 	 79 	0.69125 	 -0.9975 	 -0.62125 	29.2 	
-33.489 	 -185.501 	 1007.48 	-1 	 -10 	 79 	0.7525 	 -1.05 	 -0.7 	29.2 	
-36.966 	 -186.66 	 1007.9 	-2 	 -10 	 79 	0.77 	 -0.98 	 -0.55125 	29.2 	
-35.258 	 -187.453 	 1003.45 	-1 	 -10 	 79 	0.63875 	 -1.21625 	 -0.58625 	29.2 	
-35.746 	 -187.697 	 1001.44 	-2 	 -10 	 79 	0.67375 	 -1.085 	 -0.55125 	29.2 	
-36.051 	 -187.88 	 1003.51 	-2 	 -10 	 79 	0.7525 	 -1.00625 	 -0.56 	29.2 	
-38.552 	 -188.917 	 1001.38 	-2 	 -10 	 79 	0.69125 	 -1.2075 	 -0.5425 	29.2 	
-41.114 	 -190.381 	 1001.74 	-2 	 -10 	 79 	0.62125 	 -1.21625 	 -0.42875 	29.2 	
-42.822 	 -191.296 	 1001.38 	-2 	 -10 	 79 	0.735 	 -1.11125 	 -0.5075 	29.2 	
-46.421 	 -194.956 	 1004.98 	-2 	 -10 	 79 	0.72625 	 -1.12875 	 -0.49 	29.2 	
-47.702 	 -195.81 	 1002.35 	-2 	 -11 	 79 	0.69125 	 -1.14625 	 -0.55125 	29.2 	
-48.861 	 -197.701 	 1001.25 	-2 	 -11 	 79 	0.63 	 -1.04125 	 -0.41125 	29.2 	
-51.545 	 -198.86 	 1001.19 	-2 	 -11 	 78 	0.58625 	 -1.21625 	 -0.53375 	29.2 	
-52.033 	 -199.287 	 999.729 	-2 	 -11 	 78 	0.4725 	 -1.1725 	 -0.48125 	29.2 	
-53.192 	 -199.165 	 1000.22 	-2 	 -11 	 78 	0.6825 	 -0.98875 	 -0.49 	29.2 	
-53.619 	 -203.191 	 1001.74 	-3 	 -11 	 78 	0.55125 	 -1.11125 	 -0.5075 	29.2 	
-54.9 	 -201.422 	 999.607 	-3 	 -11 	 78 	0.77 	 -1.1725 	 -0.55125 	29.2 	
-55.632 	 -201.483 	 999.912 	-3 	 -11 	 78 	0.77875 	 -1.26 	 -0.56 	29.2 	
-56.059 	 -200.995 	 1001.25 	-3 	 -11 	 78 	0.67375 	 -1.21625 	 -0.55125 	29.2 	
-56.791 	 -200.568 	 999.912 	-3 	 -11 	 78 	0.7875 	 -1.12 	 -0.58625 	29.2 	
-54.107 	 -198.311 	 1001.62 	-3 	 -11 	 79 	0.69125 	 -1.11125 	 -0.55125 	29.2 	
-53.985 	 -197.945 	 1001.92 	-3 	 -11 	 79 	0.595 	 -1.0675 	 -0.56 	29.2 	
-52.46 	 -196.42 	 998.204 	-2 	 -11 	 79 	0.7525 	 -1.085 	 -0.56875 	29.2 	
-48.861 	 -194.468 	 1000.4 	-2 	 -10 	 79 	0.81375 	 -1.23375 	 -0.63 	29.2 	
-48.922 	 -194.712 	 1001.68 	-2 	 -10 	 79 	0.63 	 -1.05 	 -0.62125 	29.2 	
-47.397 	 -193.248 	 1002.41 	-2 	 -10 	 79 	0.805 	 -1.05875 	 -0.63 	29.2 	
-43.981 	 -191.235 	 1001.13 	-2 	 -10 	 79 	0.6475 	 -1.18125 	 -0.6475 	29.2 	
-41.114 	 -190.808 	 1003.21 	-2 	 -10 	 79 	0.7525 	 -1.14625 	 -0.56 	29.2 	
-40.931 	 -189.649 	 1004.55 	-2 	 -10 	 79 	0.7525 	 -1.11125 	 -0.51625 	29.2 	
-38.552 	 -189.1 	 1006.07 	-2 	 -10 	 79 	0.6825 	 -1.1725 	 -0.58625 	29.2 	
-36.905 	 -186.172 	 1004.91 	-2 	 -10 	 79 	0.7175 	 -1.16375 	 -0.48125 	29.2 	
-38.369 	 -185.989 	 1004 	-2 	 -10 	 79 	0.7875 	 -1.23375 	 -0.56 	29.2 	
-36.295 	 -184.952 	 1003.82 	-2 	 -10 	 79 	0.7 	 -1.21625 	 -0.5075 	29.2 	
-36.356 	 -183.488 	 1004.67 	-2 	 -10 	 79 	0.665 	 -1.18125 	 -0.56 	29.2 	
-35.99 	 -184.464 	 1003.02 	-2 	 -10 	 79 	0.76125 	 -1.14625 	 -0.525 	29.2 	
-37.454 	 -184.708 	 1004.91 	-2 	 -10 	 79 	0.84 	 -1.015 	 -0.44625 	29.2 	
-38.247 	 -185.562 	 1005.52 	-2 	 -10 	 79 	0.81375 	 -1.07625 	 -0.42 	29.2 	
-38.186 	 -185.257 	 1004.37 	-2 	 -10 	 79 	0.77 	 -1.18125 	 -0.48125 	29.2 	
-39.894 	 -186.294 	 1004.67 	-2 	 -10 	 79 	0.70875 	 -1.26875 	 -0.385 	29.2 	
-41.114 	 -187.087 	 1003.21 	-2 	 -10 	 79 	0.86625 	 -1.23375 	 -0.49875 	29.2 	
-41.114 	 -188.49 	 1003.08 	-2 	 -10 	 79 	0.7875 	 -1.0325 	 -0.4725 	29.2 	
-43.981 	 -188.795 	 1003.33 	-2 	 -10 	 79 	0.77 	 -1.19875 	 -0.51625 	29.2 	
-44.042 	 -188.734 	 1002.29 	-2 	 -10 	 79 	0.60375 	 -1.19875 	 -0.46375 	29.2 	
-45.75 	 -191.418 	 1003.88 	-2 	 -10 	 79 	0.665 	 -1.07625 	 -0.60375 	29.2 	
-48.312 	 -194.651 	 1002.11 	-2 	 -10 	 79 	0.7525 	 -1.085 	 -0.5425 	29.2 	
-47.153 	 -190.076 	 1004.91 	-2 	 -10 	 79 	0.56875 	 -1.19875 	 -0.51625 	29.2 	
-49.105 	 -195.749 	 1003.69 	-2 	 -11 	 79 	0.65625 	 -1.225 	 -0.56875 	29.2 	
-49.41 	 -194.895 	 1001.86 	-2 	 -10 	 79 	0.81375 	 -1.1375 	 -0.67375 	29.2 	
-50.508 	 -195.078 	 1001.5 	-2 	 -11 	 79 	0.805 	 -1.18125 	 -0.5425 	29.2 	
-49.654 	 -196.176 	 1000.34 	-2 	 -11 	 79 	0.72625 	 -1.23375 	 -0.56875 	29.2 	
-51.484 	 -198.128 	 1000.22 	-2 	 -11 	 79 	0.7175 	 -1.14625 	 -0.63875 	29.2 	
-49.105 	 -196.664 	 1001.74 	-2 	 -11 	 79 	0.735 	 -1.12 	 -0.67375 	29.2 	
-49.349 	 -196.786 	 1002.84 	-2 	 -11 	 79 	0.84 	 -1.09375 	 -0.62125 	29.2 	
-49.532 	 -196.359 	 1001.56 	-2 	 -11 	 79 	0.665 	 -1.11125 	 -0.56875 	29.2 	
-48.312 	 -198.738 	 1001.19 	-2 	 -11 	 78 	0.56875 	 -1.19875 	 -0.665 	29.2 	
-48.312 	 -196.664 	 1001.74 	-2 	 -11 	 79 	0.69125 	 -1.1725 	 -0.665 	29.2 	
-48.8 	 -196.908 	 1000.7 	-2 	 -11 	 79 	0.7525 	 -1.11125 	 -0.62125 	29.2 	
-48.19 	 -195.627 	 1002.41 	-2 	 -11 	 79 	0.74375 	 -1.1375 	 -0.5425 	29.2 	
-47.946 	 -193.492 	 1000.1 	-2 	 -10 	 79 	0.875 	 -1.225 	 -0.56875 	29.2 	
-48.129 	 -194.651 	 999.912 	-2 	 -11 	 79 	0.72625 	 -1.14625 	 -0.65625 	29.2 	
-47.214 	 -196.115 	 1003.63 	-2 	 -11 	 79 	0.5775 	 -1.14625 	 -0.63875 	29.2 	
-45.872 	 -192.821 	 1002.9 	-2 	 -10 	 79 	0.67375 	 -1.1375 	 -0.48125 	29.2 	
-46.299 	 -192.516 	 1002.11 	-2 	 -10 	 79 	0.70875 	 -1.21625 	 -0.39375 	29.2 	
-49.227 	 -192.699 	 1001.99 	-2 	 -10 	 79 	0.72625 	 -1.18125 	 -0.4025 	29.2 	
-45.689 	 -192.455 	 1003.82 	-2 	 -10 	 79 	0.86625 	 -1.085 	 -0.46375 	29.2 	
-44.652 	 -192.699 	 1002.72 	-2 	 -10 	 79 	0.7175 	 -1.16375 	 -0.4725 	29.2 	
-47.519 	 -192.699 	 1002.41 	-2 	 -10 	 79 	0.69125 	 -1.14625 	 -0.51625 	29.2 	
-47.824 	 -191.479 	 1001.31 	-2 	 -10 	 79 	0.6125 	 -1.07625 	 -0.55125 	29.2 	
-45.445 	 -190.137 	 1003.39 	-2 	 -10 	 79 	0.67375 	 -1.1375 	 -0.4375 	29.2 	
-45.689 	 -190.93 	 1002.05 	-2 	 -10 	 79 	0.83125 	 -1.1025 	 -0.4725 	29.2 	
-46.238 	 -190.381 	 1001.5 	-2 	 -10 	 79 	0.7525 	 -1.14625 	 -0.53375 	29.2 	
-47.702 	 -189.466 	 1001.68 	-2 	 -10 	 79 	0.70875 	 -1.1025 	 -0.55125 	29.2 	
-45.811 	 -188.734 	 1001.62 	-2 	 -10 	 79 	0.77875 	 -1.14625 	 -0.56 	29.2 	
-45.811 	 -188.307 	 1003.57 	-2 	 -10 	 79 	0.62125 	 -1.26 	 -0.49 	29.2 	
-45.445 	 -189.832 	 1005.65 	-2 	 -10 	 79 	0.6825 	 -1.1725 	 -0.55125 	29.2 	
-46.97 	 -188.673 	 1005.95 	-2 	 -10 	 79 	0.735 	 -1.33 	 -0.49875 	29.2 	
-43.981 	 -187.697 	 1004.98 	-2 	 -10 	 79 	0.91875 	 -1.16375 	 -0.48125 	29.2 	
-43.798 	 -188.856 	 1004.18 	-2 	 -10 	 79 	0.93625 	 -1.155 	 -0.60375 	29.2 	
-43.554 	 -188.185 	 1002.96 	-2 	 -10 	 79 	0.60375 	 -1.12875 	 -0.65625 	29.2 	
-42.395 	 -191.235 	 1001.31 	-2 	 -10 	 79 	0.79625 	 -1.18125 	 -0.56875 	29.2 	
-41.48 	 -188.368 	 1002.11 	-2 	 -10 	 79 	0.67375 	 -1.18125 	 -0.6125 	29.2 	
-42.639 	 -189.344 	 1003.14 	-2 	 -10 	 79 	0.70875 	 -1.19 	 -0.56875 	29.2 	
-42.09 	 -188.978 	 1003.33 	-2 	 -10 	 79 	0.6125 	 -1.16375 	 -0.67375 	29.2 	
-41.724 	 -189.344 	 1005.16 	-2 	 -10 	 79 	0.70875 	 -1.05875 	 -0.595 	29.2 	
-43.188 	 -190.076 	 1002.9 	-2 	 -10 	 79 	0.86625 	 -1.12 	 -0.5775 	29.2 	
-42.273 	 -189.283 	 1001.99 	-2 	 -10 	 79 	0.62125 	 -1.12 	 -0.5425 	29.2 	
-43.127 	 -189.344 	 1000.16 	-2 	 -10 	 79 	0.69125 	 -1.05875 	 -0.5775 	29.2 	
-44.042 	 -190.686 	 1003.08 	-2 	 -10 	 79 	0.7 	 -1.0325 	 -0.595 	29.2 	
-45.628 	 -191.601 	 1002.23 	-2 	 -10 	 79 	0.72625 	 -1.14625 	 -0.55125 	29.2 	
-47.336 	 -193.553 	 1001.86 	-2 	 -10 	 79 	0.83125 	 -1.05875 	 -0.51625 	29.2 	
-47.946 	 -194.224 	 1001.86 	-2 	 -10 	 79 	0.58625 	 -1.1375 	 -0.525 	29.2 	
-47.519 	 -193.736 	 1001.74 	-2 	 -10 	 79 	0.70875 	 -1.07625 	 -0.5075 	29.2 	
-49.044 	 -196.237 	 999.424 	-2 	 -11 	 79 	0.665 	 -1.085 	 -0.48125 	29.2 	
-48.861 	 -195.505 	 1001.25 	-2 	 -11 	 79 	0.76125 	 -1.23375 	 -0.46375 	29.2 	
-50.02 	 -196.908 	 1002.35 	-2 	 -11 	 79 	0.74375 	 -1.155 	 -0.49 	29.2 	
-50.752 	 -197.03 	 1001.86 	-2 	 -11 	 79 	0.805 	 -1.07625 	 -0.455 	29.2 	
-51.85 	 -195.688 	 1002.17 	-2 	 -11 	 79 	0.735 	 -1.12 	 -0.455 	29.2 	
-53.07 	 -197.579 	 1001.99 	-2 	 -11 	 79 	0.7875 	 -1.14625 	 -0.55125 	29.2 	
-53.68 	 -195.2 	 999.424 	-3 	 -11 	 79 	0.8225 	 -1.2075 	 -0.62125 	29.2 	
-51.606 	 -197.091 	 1000.89 	-2 	 -11 	 79 	0.8225 	 -1.26875 	 -0.65625 	29.2 	
-52.094 	 -197.03 	 1000.64 	-2 	 -11 	 79 	0.6825 	 -1.28625 	 -0.56 	29.2 	
-48.556 	 -196.298 	 1001.19 	-2 	 -11 	 79 	0.7525 	 -1.16375 	 -0.5425 	29.2 	
-51.118 	 -195.261 	 1000.7 	-2 	 -11 	 79 	0.7 	 -1.11125 	 -0.5775 	29.2 	
-49.044 	 -193.187 	 1000.89 	-2 	 -10 	 79 	0.5775 	 -1.11125 	 -0.55125 	29.2 	
-45.994 	 -193.492 	 1003.45 	-2 	 -10 	 79 	0.6825 	 -1.1725 	 -0.63 	29.2 	
-46.848 	 -192.699 	 1002.23 	-2 	 -10 	 79 	0.72625 	 -1.18125 	 -0.60375 	29.2 	
-45.201 	 -192.028 	 1002.23 	-2 	 -10 	 79 	0.7 	 -1.04125 	 -0.67375 	29.2 	
-43.127 	 -189.71 	 1003.45 	-2 	 -10 	 79 	0.77 	 -1.1025 	 -0.7525 	29.2 	
-40.016 	 -190.076 	 1003.51 	-2 	 -10 	 79 	0.86625 	 -1.1025 	 -0.60375 	29.2 	
-42.09 	 -188.978 	 1002.53 	-2 	 -10 	 79 	0.7 	 -1.0325 	 -0.58625 	29.2 	
-40.443 	 -188.978 	 1003.75 	-2 	 -10 	 79 	0.74375 	 -1.1725 	 -0.49875 	29.2 	
-37.942 	 -187.758 	 1006.74 	-2 	 -10 	 79 	0.7875 	 -1.1375 	 -0.5775 	29.2 	
-38.064 	 -188.795 	 1004.55 	-2 	 -10 	 79 	0.665 	 -1.085 	 -0.5075 	29.2 	
-35.929 	 -184.342 	 1004.43 	-2 	 -10 	 79 	0.69125 	 -1.155 	 -0.55125 	29.2 	
-37.332 	 -187.392 	 1005.04 	-2 	 -10 	 79 	0.735 	 -1.2775 	 -0.53375 	29.2 	
-36.783 	 -187.148 	 1006.68 	-2 	 -10 	 79 	0.875 	 -1.18125 	 -0.51625 	29.2 	
-40.077 	 -188.856 	 1006.68 	-2 	 -10 	 79 	0.7175 	 -1.19 	 -0.455 	29.2 	
-39.101 	 -187.758 	 1006.26 	-2 	 -10 	 79 	0.69125 	 -1.26875 	 -0.455 	29.2 	
-40.077 	 -188.551 	 1005.65 	-2 	 -10 	 79 	0.76125 	 -1.085 	 -0.56875 	29.2 	
-42.517 	 -187.575 	 1001.56 	-2 	 -10 	 79 	0.74375 	 -1.0675 	 -0.595 	29.2 	
-49.593 	 -188.185 	 1005.22 	-2 	 -10 	 79 	0.70875 	 -1.2075 	 -0.60375 	29.2 	
-46.482 	 -189.527 	 1003.33 	-2 	 -10 	 79 	0.665 	 -1.82 	 -0.69125 	29.2 	
-41.602 	 -183.427 	 995.52 	-2 	 -10 	 79 	0.55125 	 -2.1 	 -0.805 	29.2 	
-39.772 	 -185.928 	 1002.35 	-2 	 -10 	 79 	0.21875 	 -1.88125 	 -0.77 	29.2 	
-46.726 	 -194.834 	 1009.18 	-2 	 -10 	 79 	0.07 	 -1.42625 	 -0.7525 	29.2 	
-57.645 	 -203.74 	 1014.98 	-3 	 -11 	 78 	0.25375 	 -1.67125 	 -0.86625 	29.2 	
-68.503 	 -203.618 	 1011.81 	-3 	 -11 	 78 	0.44625 	 -2.205 	 -1.12 	29.2 	
-180.499 	 -309.209 	 1006.44 	-9 	 -16 	 73 	2.94 	 -2.2575 	 -3.22875 	29.2 	
-69.113 	 -270.047 	 1013.51 	-3 	 -14 	 75 	8.51375 	 -5.55625 	 -5.1975 	29.2 	
59.841 	 -128.71 	 959.164 	3 	 -7 	 82 	10.9463 	 -9.0475 	 -4.1125 	29.2 	
79.483 	 -85.888 	 860.71 	5 	 -5 	 84 	9.73875 	 -5.1975 	 -1.19 	29.2 	
-1.403 	 -125.782 	 913.353 	0 	 -7 	 82 	2.8175 	 2.8875 	 0.245 	29.2 	
-365.268 	 -294.63 	 1133.38 	-17 	 -13 	 72 	-3.29 	 3.955 	 -3.85 	29.2 	
-195.871 	 -284.016 	 1279.17 	-8 	 -12 	 77 	-12.1363 	 -6.46625 	 -11.0163 	29.2 	
-56.547 	 -514.718 	 1165.4 	-2 	 -23 	 68 	-16.1088 	 -12.18 	 -15.8288 	29.2 	
24.095 	 -665.144 	 920.673 	1 	 -35 	 59 	-12.845 	 -4.45375 	 -20.825 	29.2 	
-9.028 	 -488.549 	 779.885 	0 	 -32 	 62 	-7.91875 	 11.4188 	 -26.1538 	29.2 	
-190.198 	 -318.603 	 773.724 	-12 	 -21 	 69 	-15.575 	 20.3 	 -33.6788 	29.2 	
-225.334 	 -190.381 	 906.704 	-13 	 -11 	 76 	-30.3188 	 19.2413 	 -42.7 	29.2 	
-135.847 	 -255.041 	 1041.03 	-7 	 -13 	 76 	-34.545 	 15.8463 	 -47.5388 	29.2 	
-15.311 	 -332.145 	 1087.63 	0 	 -16 	 73 	-27.1513 	 12.565 	 -47.4775 	29.2 	
25.803 	 -309.697 	 1031.27 	1 	 -16 	 73 	-14.0263 	 11.0775 	 -44.8788 	29.2 	
-28.121 	 -233.813 	 922.747 	-1 	 -14 	 76 	-5.0225 	 12.845 	 -43.155 	29.2 	
-61.366 	 -138.897 	 884.866 	-3 	 -8 	 81 	-4.41875 	 13.2213 	 -42.77 	29.2 	
-86.742 	 -93.33 	 980.514 	-5 	 -5 	 84 	-4.64625 	 9.45 	 -42.3588 	29.2 	
-89.548 	 -93.574 	 1099.77 	-4 	 -4 	 85 	1.575 	 2.52 	 -39.725 	29.2 	
-44.774 	 -111.935 	 1103.12 	-2 	 -5 	 84 	9.54625 	 -5.01375 	 -35.9538 	29.2 	
18.483 	 -116.083 	 1032.36 	1 	 -6 	 83 	13.7288 	 -9.0475 	 -32.585 	29.2 	
74.908 	 -107.238 	 957.395 	4 	 -6 	 83 	13.5538 	 -6.7725 	 -29.4088 	29.2 	
93.086 	 -100.833 	 931.958 	5 	 -6 	 83 	11.3663 	 -0.42875 	 -26.145 	29.2 	
33.367 	 -72.468 	 971.974 	1 	 -4 	 85 	6.545 	 4.03375 	 -23.7913 	29.2 	
4.941 	 -17.202 	 1041.88 	0 	 0 	 90 	1.0675 	 3.955 	 -21.42 	29.2 	
-12.261 	 10.492 	 1084.76 	0 	 0 	 89 	-4.27 	 0.21875 	 -18.9613 	29.2 	
1.586 	 7.564 	 1096.35 	0 	 0 	 90 	-8.19 	 -1.3125 	 -16.2225 	29.2 	
11.285 	 -21.96 	 1103.98 	0 	 -1 	 88 	-11.76 	 -0.1925 	 -12.2238 	29.2 	
14.335 	 -31.964 	 1125.08 	0 	 -1 	 88 	-15.5488 	 1.12 	 -7.84875 	29.2 	
-117.547 	 -204.899 	 1116.61 	-5 	 -10 	 79 	-17.9638 	 0.7875 	 -5.5125 	29.2 	
-213.5 	 -382.287 	 1047.67 	-10 	 -19 	 71 	-9.96625 	 -4.4975 	 -6.3875 	29.2 	
-103.09 	 -448.838 	 899.323 	-5 	 -26 	 65 	0.98875 	 -10.9988 	 -9.05625 	29.2 	
40.382 	 -390.034 	 745.603 	2 	 -27 	 65 	4.85625 	 -10.7538 	 -13.0813 	29.2 	
56.669 	 -215.818 	 725.595 	4 	 -16 	 74 	-1.1025 	 -1.04125 	 -16.415 	29.2 	
84.241 	 -106.628 	 899.567 	5 	 -6 	 83 	-14.35 	 11.375 	 -20.0638 	29.2 	
7.381 	 13.176 	 1128.74 	0 	 0 	 90 	-33.8538 	 15.3738 	 -22.7238 	29.2 	
-103.517 	 29.707 	 1315.28 	-4 	 1 	 85 	-54.95 	 11.235 	 -22.855 	29.2 	
-154.696 	 -39.345 	 1425.69 	-6 	 -1 	 83 	-70.8663 	 4.025 	 -21.7 	29.2 	
-161.101 	 -164.334 	 1467.11 	-6 	 -6 	 83 	-79.625 	 -3.1325 	 -21.175 	29.2 	
-131.272 	 -247.416 	 1368.78 	-5 	 -10 	 79 	-83.895 	 -8.67125 	 -21.9275 	29.2 	
-71.858 	 -274.195 	 1160.1 	-3 	 -13 	 77 	-88.7688 	 -11.6813 	 -23.2575 	29.2 	
-45.384 	 -262.971 	 938.851 	-2 	 -15 	 74 	-98.7438 	 -11.13 	 -26.075 	29.2 	
-31.964 	 -273.219 	 850.767 	-2 	 -17 	 72 	-111.431 	 -8.35625 	 -28.7875 	29.2 	
-8.54 	 -292.19 	 828.075 	0 	 -19 	 71 	-116.55 	 -4.61125 	 -31.6838 	29.2 	
-47.092 	 -298.778 	 875.411 	-2 	 -18 	 72 	-113.094 	 -0.76125 	 -34.2913 	29.2 	
-94.062 	 -332.877 	 984.784 	-5 	 -18 	 72 	-100.783 	 -0.77875 	 -34.195 	29.2 	
-143.106 	 -326.838 	 1027.61 	-7 	 -17 	 73 	-82.5388 	 -4.8475 	 -33.1625 	29.2 	
-130.052 	 -299.693 	 993.141 	-7 	 -16 	 73 	-62.2738 	 -10.22 	 -28.42 	29.2 	
-37.088 	 -263.215 	 886.452 	-2 	 -16 	 74 	-46.5238 	 -13.37 	 -22.2513 	29.2 	
47.763 	 -245.464 	 786.351 	3 	 -17 	 73 	-41.5538 	 -12.1538 	 -18.9525 	29.2 	
153.659 	 -256.749 	 762.5 	10 	 -18 	 72 	-43.7588 	 -5.6525 	 -13.965 	29.2 	
141.947 	 -448.838 	 848.754 	8 	 -27 	 64 	-43.715 	 2.94875 	 1.74125 	29.2 	
42.7 	 -653.798 	 952.82 	2 	 -34 	 60 	-43.4613 	 4.73375 	 18.4713 	29.2 	
-2.501 	 -839.787 	 1012.42 	0 	 -39 	 57 	-46.4013 	 1.05875 	 21.9275 	29.2 	
-16.348 	 -823.866 	 969.29 	0 	 -40 	 57 	-47.0488 	 -0.8925 	 15.0588 	29.2 	
-17.812 	 -660.081 	 913.597 	0 	 -35 	 59 	-44.9663 	 0.8575 	 8.2075 	29.2 	
2.196 	 -412.543 	 891.149 	0 	 -24 	 67 	-41.9388 	 5.2675 	 7.25375 	29.2 	
7.564 	 -167.384 	 911.584 	0 	 -10 	 79 	-43.6363 	 9.2575 	 8.0325 	29.2 	
-44.896 	 15.128 	 987.163 	-2 	 0 	 87 	-49.6125 	 9.7825 	 9.72125 	29.2 	
-43.493 	 92.72 	 1099.59 	-2 	 4 	 85 	-57.05 	 7.13125 	 10.6313 	29.2 	
-49.288 	 153.964 	 1202.55 	-2 	 7 	 82 	-66.0538 	 4.235 	 9.65125 	29.2 	
-90.951 	 141.459 	 1349.26 	-3 	 5 	 84 	-75.5825 	 1.42625 	 9.1 	29.2 	
-135.054 	 79.727 	 1447.96 	-5 	 3 	 84 	-83.9388 	 -3.85875 	 8.75 	29.2 	
-175.314 	 -20.252 	 1455.95 	-6 	 0 	 83 	-91.7613 	 -10.955 	 10.4563 	29.2 	
-128.039 	 -129.137 	 1373.66 	-5 	 -5 	 84 	-100.345 	 -18.7775 	 11.5763 	29.2 	
-46.787 	 -207.339 	 1211.52 	-2 	 -9 	 80 	-110.574 	 -23.66 	 10.43 	29.2 	
-34.099 	 -260.958 	 1033.64 	-1 	 -14 	 76 	-122.386 	 -23.8613 	 9.135 	29.2 	
-22.631 	 -266.509 	 911.462 	-1 	 -16 	 74 	-132.414 	 -21.595 	 8.63625 	29.2 	
-21.228 	 -274.256 	 845.765 	-1 	 -17 	 72 	-141.225 	 -17.4913 	 8.2425 	29.2 	
-62.281 	 -283.894 	 879.498 	-3 	 -17 	 72 	-143.894 	 -12.9588 	 10.1588 	29.2 	
-73.932 	 -339.404 	 962.946 	-4 	 -19 	 71 	-143.386 	 -10.9725 	 13.8775 	29.2 	
7.381 	 -423.584 	 1010.16 	0 	 -22 	 68 	-144.734 	 -9.93125 	 14.7613 	29.2 	
40.199 	 -482.998 	 1021.75 	2 	 -25 	 66 	-146.423 	 -8.07625 	 12.4163 	29.2 	
35.99 	 -525.21 	 1016.38 	1 	 -27 	 65 	-146.283 	 -8.12875 	 10.3425 	29.2 	
-10.675 	 -488.976 	 967.399 	0 	 -26 	 65 	-143.614 	 -9.2225 	 8.86375 	29.2 	
5.917 	 -466.223 	 909.205 	0 	 -27 	 65 	-140.621 	 -10.5613 	 9.135 	29.2 	
4.941 	 -424.011 	 822.463 	0 	 -27 	 65 	-138.119 	 -10.5875 	 9.7475 	29.2 	
51.118 	 -436.821 	 757.681 	3 	 -29 	 63 	-135.853 	 -8.1025 	 10.0538 	29.2 	
16.836 	 -385.398 	 724.497 	1 	 -28 	 64 	-131.53 	 -2.35375 	 9.14375 	29.2 	
54.961 	 -414.861 	 764.086 	3 	 -28 	 64 	-128.643 	 2.345 	 7.70875 	29.2 	
-42.944 	 -325.191 	 820.45 	-2 	 -21 	 69 	-123.288 	 5.88 	 5.6525 	29.2 	
-128.405 	 -287.493 	 903.166 	-7 	 -17 	 73 	-119.061 	 6.16 	 7.105 	29.2 	
-98.698 	 -312.503 	 1000.77 	-5 	 -17 	 73 	-112.63 	 3.0275 	 8.19 	29.2 	
-37.21 	 -294.569 	 984.174 	-2 	 -16 	 74 	-107.109 	 1.14625 	 5.73125 	29.2 	
-50.813 	 -305.061 	 995.154 	-2 	 -17 	 73 	-102.804 	 1.81125 	 2.37125 	29.2 	
-99.43 	 -271.328 	 990.762 	-5 	 -15 	 75 	-98.7088 	 1.7675 	 0.315 	29.2 	
-98.088 	 -288.347 	 956.846 	-5 	 -16 	 73 	-97.6238 	 0.6125 	 -1.12875 	29.2 	
-108.153 	 -291.946 	 932.69 	-6 	 -17 	 73 	-97.09 	 0.39375 	 -4.66375 	29.2 	
-110.654 	 -336.293 	 925.37 	-6 	 -19 	 71 	-99.1725 	 0.67375 	 -7.49875 	29.2 	
-80.215 	 -406.382 	 916.647 	-4 	 -23 	 67 	-100.774 	 2.33625 	 -11.8125 	29.2 	
-95.587 	 -435.54 	 922.137 	-5 	 -25 	 66 	-104.475 	 5.87125 	 -16.9138 	29.2 	
-90.707 	 -515.084 	 986.614 	-4 	 -27 	 65 	-108.509 	 8.82875 	 -21.875 	29.2 	
-122.244 	 -543.754 	 1006.93 	-6 	 -28 	 64 	-112.455 	 9.3975 	 -27.5538 	29.2 	
-112.972 	 -560.041 	 1011.01 	-5 	 -28 	 64 	-117.215 	 8.785 	 -31.6838 	29.2 	
-37.027 	 -471.957 	 983.137 	-1 	 -25 	 66 	-120.374 	 9.7125 	 -34.2825 	29.2 	
187.148 	 5.429 	 965.02 	10 	 0 	 79 	-121.065 	 13.7638 	 -15.9863 	29.2 	
220.393 	 -385.215 	 995.276 	11 	 -20 	 70 	-113.505 	 20.86 	 11.6725 	29.2 	
24.156 	 -569.191 	 994.117 	1 	 -29 	 63 	-112.123 	 24.395 	 10.8763 	29.2 	
-129.381 	 -562.725 	 978.074 	-6 	 -29 	 63 	-115.859 	 24.5088 	 9.37125 	29.3 	
-116.022 	 -534.055 	 954.894 	-6 	 -29 	 63 	-118.466 	 23.9138 	 11.7338 	29.3 	
-165.981 	 -527.528 	 960.811 	-8 	 -28 	 64 	-117.171 	 24.3338 	 17.1325 	29.3 	
-219.234 	 -510.326 	 971.303 	-11 	 -27 	 65 	-114.223 	 26.075 	 23.5113 	29.3 	
-266.265 	 -483.791 	 984.479 	-13 	 -25 	 66 	-110.924 	 27.6238 	 29.33 	29.3 	
-210.084 	 -524.478 	 1002.96 	-10 	 -27 	 65 	-106.75 	 28.7525 	 35.175 	29.3 	
-210.572 	 -518.012 	 1015.35 	-10 	 -26 	 65 	-99.3563 	 31.0888 	 39.6638 	29.3 	
-304.817 	 -475.617 	 1019 	-15 	 -24 	 67 	-92.0938 	 32.7338 	 46.2175 	29.3 	
-338.489 	 -464.393 	 1024.07 	-16 	 -23 	 67 	-86.6425 	 32.3925 	 53.3225 	29.2 	
-310.368 	 -461.831 	 1029.19 	-15 	 -23 	 67 	-79.66 	 31.605 	 59.1063 	29.2 	
-279.319 	 -458.293 	 1032.55 	-13 	 -23 	 67 	-70.4988 	 31.395 	 64.225 	29.2 	
-249.49 	 -457.195 	 1029.92 	-12 	 -23 	 67 	-61.46 	 32.2088 	 69.265 	29.2 	
-217.892 	 -460.916 	 1020.9 	-11 	 -23 	 67 	-53.0775 	 34.4225 	 73.08 	29.2 	
-179.34 	 -458.964 	 1012.78 	-9 	 -24 	 67 	-46.27 	 37.9838 	 76.055 	29.2 	
-148.779 	 -464.332 	 998.082 	-7 	 -24 	 67 	-40.5825 	 43.4788 	 79.0038 	29.2 	
-121.146 	 -478.972 	 987.346 	-6 	 -25 	 66 	-34.0288 	 50.8813 	 81.06 	29.2 	
-93.025 	 -479.643 	 972.218 	-4 	 -26 	 66 	-26.4775 	 59.9025 	 82.0575 	29.2 	
-64.904 	 -470.066 	 958.188 	-3 	 -26 	 66 	-19.46 	 70.8575 	 82.7838 	29.2 	
-45.445 	 -475.19 	 948.184 	-2 	 -26 	 65 	-11.6725 	 83.8688 	 83.23 	29.2 	
-28.426 	 -478.484 	 936.167 	-1 	 -27 	 65 	-3.5 	 98.9713 	 83.055 	29.2 	
-20.801 	 -487.207 	 927.505 	-1 	 -27 	 65 	5.99375 	 115.229 	 82.53 	29.2 	
-15.982 	 -469.029 	 922.93 	0 	 -26 	 65 	15.1113 	 132.773 	 81.7338 	29.2 	
-18.422 	 -439.261 	 917.928 	-1 	 -25 	 66 	23.2575 	 151.025 	 81.3225 	29.2 	
-28.365 	 -436.943 	 920.246 	-1 	 -25 	 66 	31.2463 	 170.144 	 81.9875 	29.2 	
-45.75 	 -437.98 	 924.699 	-2 	 -25 	 66 	39.7513 	 189.534 	 82.6525 	29.2 	
-72.468 	 -433.1 	 928.664 	-4 	 -24 	 67 	48.475 	 208.609 	 83.5188 	29.2 	
-96.807 	 -413.397 	 940.498 	-5 	 -23 	 68 	57.0588 	 227.115 	 85.1988 	29.2 	
-130.357 	 -405.101 	 951.966 	-7 	 -22 	 68 	65.6513 	 244.886 	 87.7275 	29.2 	
-164.639 	 -401.929 	 962.519 	-8 	 -22 	 68 	74.97 	 261.931 	 90.6675 	29.2 	
-202.459 	 -407.785 	 976.732 	-10 	 -22 	 68 	84.8575 	 277.445 	 94.7888 	29.2 	
-241.499 	 -426.817 	 987.163 	-12 	 -22 	 68 	95.2525 	 286.116 	 99.5225 	29.2 	
-283.955 	 -439.2 	 988.871 	-14 	 -23 	 67 	105.569 	 286.685 	 104.641 	29.2 	
-300.059 	 -461.77 	 967.704 	-15 	 -24 	 66 	114.223 	 286.685 	 110.933 	29.2 	
-304.573 	 -388.936 	 943.487 	-16 	 -21 	 69 	127.111 	 286.685 	 117.539 	29.2 	
-343.308 	 -327.021 	 953.918 	-18 	 -17 	 71 	137.148 	 286.685 	 124.346 	29.2 	
-391.132 	 -352.214 	 972.584 	-20 	 -18 	 69 	146.676 	 286.685 	 131.801 	29.2 	
-422.791 	 -347.822 	 980.758 	-22 	 -18 	 68 	158.183 	 286.685 	 138.661 	29.2 	
-443.226 	 -320.128 	 975.085 	-23 	 -16 	 67 	167.178 	 286.685 	 145.215 	29.2 	
-465.186 	 -328.546 	 969.778 	-24 	 -16 	 66 	173.6 	 286.685 	 152.11 	29.2 	
-486.109 	 -352.214 	 962.885 	-25 	 -18 	 65 	179.576 	 286.685 	 158.13 	29.2 	
-501.664 	 -361.303 	 950.075 	-26 	 -18 	 64 	183.916 	 286.685 	 163.721 	29.2 	
-483.974 	 -342.576 	 900.909 	-26 	 -18 	 64 	184.581 	 286.685 	 169.61 	29.2 	
-437.065 	 -281.637 	 830.637 	-26 	 -16 	 65 	187.023 	 286.685 	 176.435 	29.2 	
-434.564 	 -242.353 	 790.194 	-27 	 -15 	 64 	191.818 	 286.685 	 182.438 	29.2 	
-445.666 	 -295.179 	 777.506 	-28 	 -18 	 63 	195.694 	 286.685 	 188.335 	29.2 	
-447.374 	 -356.789 	 751.215 	-28 	 -22 	 62 	200.795 	 286.685 	 194.075 	29.2 	
-432.246 	 -361.303 	 713.761 	-28 	 -23 	 62 	206.535 	 286.685 	 198.354 	29.2 	
-423.645 	 -321.104 	 672.647 	-29 	 -21 	 61 	210.175 	 286.685 	 201.758 	29.2 	
-415.776 	 -266.509 	 635.986 	-31 	 -19 	 61 	210.586 	 286.685 	 204.698 	29.2 	
-410.896 	 -225.822 	 603.229 	-32 	 -17 	 60 	208.425 	 286.685 	 207.568 	29.2 	
-418.887 	 -230.519 	 575.108 	-34 	 -17 	 59 	205.59 	 286.685 	 210.184 	29.2 	
-433.222 	 -261.69 	 547.292 	-35 	 -20 	 58 	203.473 	 286.685 	 212.056 	29.2 	
-438.834 	 -267.363 	 519.781 	-36 	 -21 	 45 	201.749 	 286.685 	 213.57 	29.2 	
-451.034 	 -254.37 	 490.684 	-39 	 -20 	 43 	200.331 	 286.685 	 215.653 	29.2 	
-468.053 	 -264.374 	 465.064 	-41 	 -21 	 40 	198.38 	 286.685 	 217.849 	29.2 	
-490.074 	 -270.291 	 443.287 	-43 	 -22 	 38 	196.901 	 286.685 	 219.94 	29.2 	
-518.744 	 -265.289 	 434.259 	-45 	 -21 	 36 	195.676 	 286.685 	 221.734 	29.2 	
-555.161 	 -265.838 	 429.196 	-55 	 -20 	 34 	194.653 	 286.685 	 223.3 	29.2 	
-591.151 	 -245.159 	 432.246 	-55 	 -18 	 34 	194.845 	 286.685 	 225.138 	29.2 	
-625.555 	 -210.389 	 440.359 	-56 	 -15 	 33 	194.443 	 286.685 	 227.456 	29.2 	
-664.351 	 -195.627 	 456.036 	-56 	 -13 	 33 	192.203 	 286.685 	 229.784 	29.2 	
-703.94 	 -205.57 	 475.8 	-57 	 -13 	 32 	187.959 	 286.685 	 231.613 	29.2 	
-732.122 	 -221.308 	 500.566 	-56 	 -14 	 33 	182.14 	 286.685 	 232.558 	29.2 	
-757.132 	 -214.903 	 520.818 	-56 	 -13 	 33 	176.164 	 286.685 	 232.19 	29.2 	
-770.064 	 -176.046 	 538.386 	-55 	 -10 	 34 	169.829 	 286.685 	 230.711 	29.3 	
-778.726 	 -135.786 	 554.368 	-54 	 -8 	 35 	164.045 	 286.685 	 229.023 	29.3 	
-791.902 	 -123.891 	 580.354 	-54 	 -7 	 35 	157.614 	 286.685 	 225.986 	29.3 	
-808.982 	 -152.927 	 616.588 	-53 	 -8 	 36 	151.183 	 286.685 	 221.716 	29.3 	
-822.036 	 -168.848 	 648.43 	-52 	 -9 	 37 	146.676 	 286.685 	 216.073 	29.3 	
-831.552 	 -160.064 	 679.235 	-51 	 -8 	 38 	142.249 	 286.685 	 209.274 	29.3 	
-836.615 	 -148.474 	 705.526 	-50 	 -7 	 39 	136.623 	 286.685 	 201.303 	29.3 	
-846.558 	 -140.727 	 736.697 	-49 	 -7 	 40 	130.2 	 286.685 	 192.448 	29.3 	
-859.612 	 -152.561 	 772.382 	-48 	 -7 	 41 	124.066 	 286.685 	 182.753 	29.2 	
-876.692 	 -162.748 	 810.568 	-47 	 -7 	 42 	119.621 	 286.685 	 172.279 	29.2 	
-878.644 	 -120.048 	 834.236 	-46 	 -5 	 43 	114.441 	 286.685 	 160.956 	29.2 	
-883.89 	 -109.861 	 861.137 	-45 	 -5 	 44 	107.328 	 286.685 	 149.765 	29.2 	
-897.31 	 -148.108 	 888.099 	-44 	 -6 	 44 	103.609 	 286.685 	 139.143 	29.2 	
-902.068 	 -113.948 	 909.876 	-44 	 -5 	 45 	103.128 	 286.685 	 129.141 	29.2 	
-909.388 	 -116.754 	 929.335 	-44 	 -5 	 45 	102.218 	 286.685 	 119.805 	29.2 	
-913.292 	 -123.83 	 941.596 	-43 	 -5 	 45 	101.631 	 286.685 	 109.804 	29.2 	
-919.27 	 -114.68 	 953.491 	-43 	 -4 	 45 	101.57 	 277.856 	 99.6713 	29.3 	
-925.736 	 -107.726 	 961.421 	-43 	 -4 	 45 	101.43 	 240.87 	 89.5388 	29.3 	
-933.91 	 -113.704 	 967.887 	-43 	 -4 	 45 	101.168 	 197.916 	 79.24 	29.3 	
-945.683 	 -122 	 971.181 	-44 	 -5 	 45 	101.614 	 154.07 	 69.0288 	29.3 	
-959.347 	 -109.8 	 971.791 	-44 	 -4 	 45 	102.961 	 109.62 	 59.535 	29.3 	
-972.035 	 -85.156 	 967.826 	-45 	 -3 	 44 	104.904 	 64.4088 	 50.33 	29.3 	
-979.843 	 -48.739 	 957.822 	-45 	 -2 	 44 	106.514 	 19.2675 	 40.9238 	29.3 	
-992.165 	 -33.184 	 940.132 	-46 	 -1 	 43 	108.693 	 -25.7075 	 31.64 	29.3 	
-1006.01 	 -12.078 	 916.586 	-47 	 0 	 42 	110.758 	 -69.6675 	 22.3038 	29.2 	
-1016.44 	 2.257 	 890.234 	-48 	 0 	 41 	112.858 	 -112.77 	 12.8975 	29.2 	
-1027.61 	 15.799 	 854.244 	-50 	 0 	 39 	114.704 	 -154.018 	 3.54375 	29.2 	
-1037.37 	 24.644 	 814.106 	-51 	 1 	 38 	115.71 	 -193.226 	 -5.3375 	29.2 	
-1048.22 	 32.818 	 772.87 	-53 	 1 	 36 	116.471 	 -230.143 	 -13.7463 	29.2 	
-1058.35 	 41.968 	 731.085 	-55 	 1 	 34 	116.996 	 -264.224 	 -21.3675 	29.2 	
-1070.86 	 45.811 	 684.481 	-57 	 2 	 32 	117.093 	 -284.979 	 -28.4725 	29.2 	
-1080.62 	 47.092 	 641.781 	-59 	 2 	 30 	116.559 	 -286.685 	 -35.0263 	29.2 	
-1092.02 	 52.216 	 603.046 	-61 	 2 	 28 	115.763 	 -286.685 	 -40.8363 	29.3 	
-1100.62 	 50.752 	 561.749 	-62 	 2 	 27 	114.205 	 -286.685 	 -45.9113 	29.3 	
-1106.72 	 45.75 	 524.112 	-64 	 2 	 25 	111.93 	 -286.685 	 -50.225 	29.3 	
-1113.37 	 45.872 	 487.939 	-66 	 2 	 23 	108.859 	 -286.685 	 -53.8825 	29.3 	
-1113.68 	 47.58 	 455.304 	-67 	 2 	 22 	105.394 	 -286.685 	 -56.8488 	29.3 	
-1115.26 	 49.898 	 425.78 	-69 	 2 	 20 	101.859 	 -286.685 	 -59.08 	29.3 	
-1116.79 	 53.375 	 401.38 	-70 	 2 	 19 	97.93 	 -286.685 	 -61.1975 	29.3 	
-1118.37 	 45.628 	 382.958 	-71 	 2 	 18 	93.1088 	 -286.685 	 -63.105 	29.3 	
-1120.81 	 37.21 	 365.634 	-71 	 1 	 18 	87.1675 	 -286.685 	 -65.1 	29.2 	
-1121.12 	 30.622 	 354.41 	-72 	 1 	 17 	80.5963 	 -286.685 	 -66.5613 	29.2 	
-1120.88 	 34.221 	 348.615 	-72 	 1 	 17 	72.9838 	 -286.685 	 -67.4013 	29.2 	
-1122.4 	 23.79 	 347.944 	-72 	 1 	 17 	64.8988 	 -286.685 	 -67.5675 	29.2 	
-1118.98 	 16.958 	 352.214 	-72 	 0 	 17 	56.945 	 -286.685 	 -67.655 	29.2 	
-1117.09 	 12.81 	 354.166 	-72 	 0 	 17 	49.1313 	 -286.685 	 -67.5238 	29.2 	
-1112.09 	 12.444 	 353.983 	-72 	 0 	 17 	41.5713 	 -286.685 	 -67.0775 	29.2 	
-1100.87 	 17.507 	 356.118 	-72 	 0 	 17 	34.9913 	 -286.685 	 -66.185 	29.2 	
-1091.17 	 25.071 	 357.521 	-71 	 1 	 18 	28.6038 	 -286.685 	 -64.7413 	29.3 	
-1079.88 	 25.498 	 365.207 	-71 	 1 	 18 	22.5663 	 -286.685 	 -62.6588 	29.3 	
-1067.38 	 29.402 	 370.27 	-70 	 1 	 19 	17.185 	 -286.685 	 -59.99 	29.3 	
-1053.23 	 45.506 	 376.309 	-70 	 2 	 19 	12.0575 	 -286.685 	 -56.875 	29.3 	
-1034.87 	 64.965 	 382.165 	-69 	 3 	 20 	7.13125 	 -286.685 	 -53.9525 	29.3 	
-1012.23 	 76.067 	 388.326 	-69 	 4 	 20 	1.82875 	 -286.685 	 -51.5375 	29.3 	
-998.692 	 78.751 	 400.16 	-68 	 4 	 21 	-4.33125 	 -286.685 	 -49.77 	29.3 	
-983.93 	 94.123 	 412.177 	-67 	 5 	 22 	-10.745 	 -286.685 	 -48.0988 	29.3 	
-957.212 	 149.755 	 428.769 	-66 	 8 	 23 	-17.0538 	 -286.685 	 -46.0863 	29.3 	
-940.071 	 154.147 	 446.581 	-64 	 8 	 25 	-24.57 	 -286.685 	 -42.4025 	29.3 	
-946.903 	 25.742 	 462.807 	-63 	 1 	 26 	-32.655 	 -286.685 	 -43.2163 	29.3 	
-925.675 	 40.992 	 476.898 	-62 	 2 	 27 	-37.3625 	 -286.685 	 -44.0388 	29.3 	
-906.46 	 74.664 	 483.364 	-62 	 4 	 27 	-41.9038 	 -286.685 	 -40.985 	29.3 	
-884.866 	 92.293 	 485.316 	-61 	 5 	 28 	-47.6875 	 -286.685 	 -37.7038 	29.3 	
-863.882 	 117.242 	 492.453 	-60 	 6 	 29 	-52.605 	 -286.685 	 -34.125 	29.3 	
-842.532 	 108.824 	 498.126 	-59 	 6 	 30 	-56.9013 	 -286.685 	 -29.8813 	29.3 	
-821.182 	 97.661 	 505.995 	-58 	 5 	 31 	-60.935 	 -286.685 	 -25.8738 	29.3 	
-796.721 	 93.147 	 514.474 	-57 	 5 	 32 	-64.4788 	 -286.685 	 -21.6738 	29.3 	
-774.456 	 84.119 	 527.04 	-55 	 5 	 34 	-67.5063 	 -286.685 	 -17.0625 	29.3 	
-747.433 	 77.592 	 532.042 	-54 	 4 	 35 	-70.8838 	 -286.685 	 -12.6875 	29.3 	
-716.445 	 86.437 	 536.312 	-53 	 5 	 36 	-74.0338 	 -286.685 	 -8.82 	29.3 	
-684.115 	 98.21 	 541.985 	-51 	 6 	 38 	-78.2513 	 -286.685 	 -5.3375 	29.3 	
-655.445 	 99.369 	 548.756 	-50 	 6 	 39 	-82.8888 	 -286.685 	 -1.98625 	29.3 	
-625.616 	 92.11 	 558.028 	-48 	 6 	 41 	-87.6225 	 -286.685 	 1.19 	29.3 	
-595.97 	 82.899 	 557.052 	-47 	 5 	 42 	-92.2338 	 -286.685 	 4.22625 	29.3 	
-561.017 	 76.616 	 557.174 	-44 	 5 	 44 	-96.0838 	 -286.685 	 7.245 	29.3 	
-527.406 	 71.492 	 553.575 	-43 	 5 	 55 	-98.4463 	 -286.685 	 10.7713 	29.3 	
-499.773 	 54.534 	 558.76 	-41 	 4 	 56 	-99.33 	 -286.685 	 14.5688 	29.3 	
-471.042 	 40.321 	 562.786 	-39 	 3 	 57 	-98.7613 	 -286.685 	 18.48 	29.3 	
-436.028 	 29.402 	 566.202 	-37 	 2 	 58 	-98.07 	 -286.685 	 23.0738 	29.3 	
-402.173 	 16.897 	 564.677 	-35 	 1 	 59 	-97.3613 	 -284.428 	 27.79 	29.3 	
-366.854 	 3.233 	 565.592 	-32 	 0 	 61 	-96.0225 	 -270.191 	 32.235 	29.3 	
-334.402 	 -7.625 	 564.921 	-30 	 0 	 63 	-94.605 	 -251.519 	 36.3213 	29.2 	
-301.645 	 -15.128 	 566.69 	-28 	 -1 	 64 	-93.1788 	 -232.146 	 40.0925 	29.2 	
-265.35 	 -22.082 	 564.86 	-25 	 -2 	 66 	-92.4788 	 -211.838 	 43.3388 	29.2 	
-231.8 	 -32.94 	 563.274 	-22 	 -3 	 69 	-91.8925 	 -190.811 	 46.3925 	29.2 	
-202.459 	 -50.142 	 565.653 	-19 	 -4 	 71 	-91.63 	 -169.356 	 49.1663 	29.2 	
-176.839 	 -66.307 	 569.191 	-17 	 -6 	 73 	-91.2888 	 -147.455 	 51.625 	29.2 	
-155.672 	 -82.594 	 570.838 	-15 	 -7 	 75 	-91 	 -125.011 	 53.8125 	29.2 	
-132.553 	 -92.476 	 576.938 	-12 	 -8 	 77 	-90.3263 	 -102.366 	 55.825 	29.2 	
-115.168 	 -110.715 	 580.72 	-11 	 -10 	 78 	-89.6 	 -79.5113 	 57.7413 	29.2 	
-99.735 	 -119.438 	 584.38 	-9 	 -11 	 78 	-88.5763 	 -56.5513 	 59.5088 	29.2 	
-87.779 	 -131.089 	 590.48 	-8 	 -12 	 77 	-87.3513 	 -33.81 	 60.6813 	29.2 	
-77.836 	 -137.921 	 593.042 	-7 	 -12 	 77 	-86.6513 	 -11.0775 	 61.6875 	29.2 	
-66.795 	 -144.326 	 604.632 	-6 	 -13 	 76 	-86.3538 	 11.5588 	 62.4138 	29.2 	
-62.586 	 -151.402 	 610.915 	-5 	 -13 	 76 	-85.435 	 33.915 	 62.9388 	29.2 	
-61.915 	 -160.857 	 620.004 	-5 	 -14 	 75 	-83.9475 	 55.7813 	 63.1313 	29.2 	
-66.917 	 -169.458 	 631.228 	-5 	 -14 	 75 	-82.2413 	 77.0525 	 62.7988 	29.2 	
-72.041 	 -166.957 	 645.014 	-6 	 -14 	 75 	-80.3075 	 97.4488 	 62.2738 	29.3 	
-87.596 	 -171.166 	 661.606 	-7 	 -14 	 75 	-78.0938 	 116.856 	 61.425 	29.3 	
-106.445 	 -165.493 	 676.673 	-8 	 -13 	 76 	-75.25 	 134.969 	 60.0425 	29.3 	
-129.381 	 -158.234 	 698.328 	-10 	 -12 	 77 	-72.6425 	 151.384 	 58.8525 	29.3 	
-162.199 	 -166.042 	 728.462 	-12 	 -12 	 77 	-71.3563 	 165.821 	 57.5575 	29.3 	
-193.98 	 -161.833 	 757.071 	-14 	 -11 	 76 	-70.0438 	 177.844 	 56.0788 	29.3 	
-228.506 	 -150.121 	 787.632 	-15 	 -10 	 74 	-68.9938 	 187.355 	 54.4338 	29.3 	
-263.825 	 -151.219 	 816.424 	-17 	 -9 	 72 	-68.075 	 194.416 	 52.7625 	29.3 	
-298.412 	 -151.158 	 845.704 	-19 	 -9 	 71 	-67.0863 	 198.739 	 51.1438 	29.2 	
-333.243 	 -148.718 	 872.483 	-20 	 -9 	 70 	-65.6338 	 201.198 	 49.5775 	29.2 	
-365.817 	 -144.631 	 896.761 	-21 	 -8 	 69 	-63.8663 	 201.574 	 48.3613 	29.2 	
-397.537 	 -153.049 	 923.296 	-23 	 -8 	 68 	-63.1225 	 200.034 	 47.1538 	29.2 	
-424.194 	 -150.853 	 943.731 	-23 	 -8 	 67 	-62.44 	 196.945 	 45.9288 	29.2 	
-446.703 	 -142.862 	 961.909 	-24 	 -7 	 67 	-61.215 	 192.64 	 45.0013 	29.2 	
-467.931 	 -136.945 	 976.183 	-25 	 -7 	 66 	-59.92 	 187.451 	 44.2838 	29.2 	
-486.963 	 -132.675 	 987.712 	-26 	 -6 	 66 	-58.4413 	 181.44 	 43.6188 	29.2 	
-504.043 	 -135.054 	 997.716 	-26 	 -6 	 65 	-57.0763 	 174.851 	 43.3563 	29.2 	
-514.962 	 -136.091 	 1003.33 	-26 	 -6 	 65 	-55.5625 	 168.315 	 43.2075 	29.2 	
-524.356 	 -133.346 	 1007.54 	-27 	 -6 	 65 	-53.5588 	 161.805 	 43.1288 	29.2 	
-527.65 	 -134.017 	 1005.77 	-27 	 -6 	 65 	-51.1963 	 155.593 	 43.4175 	29.2 	
-524.6 	 -132.858 	 1001.68 	-27 	 -6 	 65 	-48.5363 	 150.203 	 43.925 	29.2 	
-522.709 	 -134.444 	 992.958 	-27 	 -6 	 65 	-45.8588 	 145.766 	 44.3625 	29.2 	
-516.243 	 -139.995 	 983.32 	-27 	 -7 	 65 	-43.0413 	 142.59 	 44.975 	29.2 	
-503.25 	 -152.683 	 968.07 	-27 	 -7 	 65 	-40.1538 	 140.945 	 45.675 	29.2 	
-489.708 	 -166.591 	 947.025 	-26 	 -8 	 65 	-37.5375 	 140.945 	 46.34 	29.2 	
-476.349 	 -187.514 	 929.945 	-26 	 -10 	 65 	-35.0525 	 142.87 	 47.0663 	29.2 	
-464.332 	 -219.722 	 910.059 	-26 	 -12 	 65 	-31.9988 	 146.65 	 47.3988 	29.2 	
-452.437 	 -243.146 	 890.417 	-26 	 -13 	 65 	-28.5075 	 152.32 	 47.8538 	29.2 	
-441.396 	 -237.046 	 872.971 	-26 	 -13 	 65 	-24.605 	 159.635 	 48.93 	29.2 	
-430.172 	 -221.674 	 853.878 	-25 	 -13 	 65 	-20.4838 	 168.761 	 50.645 	29.2 	
-422.364 	 -221.186 	 834.236 	-26 	 -13 	 65 	-16.5813 	 179.331 	 52.3775 	29.2 	
-414.434 	 -226.31 	 816.485 	-26 	 -13 	 65 	-12.3463 	 191.643 	 53.9263 	29.2 	
-409.371 	 -235.826 	 798.551 	-26 	 -14 	 65 	-8.085 	 205.371 	 55.3875 	29.2 	
-407.968 	 -239.913 	 782.264 	-26 	 -15 	 65 	-3.5875 	 220.378 	 56.7088 	29.2 	
-408.944 	 -239.181 	 766.221 	-26 	 -15 	 64 	0.97125 	 236.53 	 57.785 	29.2 	
-419.07 	 -237.839 	 757.803 	-27 	 -15 	 64 	5.705 	 253.453 	 59.08 	29.2 	
-433.771 	 -239.059 	 754.448 	-28 	 -15 	 63 	10.605 	 270.883 	 60.7775 	29.2 	
-458.842 	 -248.88 	 755.302 	-29 	 -15 	 62 	16.3888 	 284.419 	 62.755 	29.2 	
-492.331 	 -248.514 	 768.356 	-31 	 -15 	 61 	23.6338 	 286.685 	 65.1175 	29.2 	
-525.942 	 -238.388 	 782.996 	-32 	 -14 	 60 	30.9225 	 286.685 	 67.8038 	29.2 	
-559.309 	 -208.315 	 798.856 	-34 	 -12 	 60 	38.1325 	 286.685 	 70.7263 	29.2 	
-592.859 	 -183.061 	 819.596 	-35 	 -10 	 59 	43.4438 	 286.685 	 73.0538 	29.2 	
-629.337 	 -180.987 	 842.044 	-36 	 -9 	 59 	48.0813 	 286.685 	 75.2325 	29.2 	
-661.118 	 -174.704 	 861.259 	-36 	 -9 	 58 	52.3688 	 286.685 	 76.545 	29.2 	
-682.895 	 -155.733 	 872.971 	-37 	 -7 	 58 	56.2888 	 286.685 	 77.0963 	29.2 	
-694.302 	 -130.784 	 874.679 	-38 	 -6 	 58 	59.3775 	 286.685 	 77.4025 	29.2 	
-713.395 	 -143.106 	 885.415 	-38 	 -7 	 57 	60.7775 	 286.685 	 77.4375 	29.2 	
-729.438 	 -154.33 	 896.822 	-38 	 -7 	 57 	60.7163 	 286.685 	 76.3525 	29.2 	
-740.296 	 -147.376 	 910.913 	-38 	 -7 	 57 	61.3025 	 286.685 	 75.3375 	29.2 	
-750.91 	 -133.285 	 929.701 	-38 	 -6 	 57 	61.53 	 286.685 	 74.375 	29.2 	
-753.35 	 -124.562 	 945.256 	-38 	 -5 	 58 	61.2675 	 285.985 	 73.2025 	29.2 	
-748.47 	 -121.756 	 957.334 	-37 	 -5 	 58 	61.11 	 275.581 	 71.435 	29.2 	
-741.089 	 -126.087 	 961.543 	-37 	 -5 	 58 	60.7075 	 256.778 	 68.5388 	29.2 	
-726.022 	 -122.305 	 967.643 	-36 	 -5 	 59 	60.2088 	 236.058 	 64.2338 	29.2 	
-712.907 	 -115.656 	 971.852 	-36 	 -5 	 59 	59.5438 	 213.946 	 58.5638 	29.2 	
-695.339 	 -98.637 	 974.17 	-35 	 -4 	 59 	58.065 	 190.54 	 51.6775 	29.2 	
-681.614 	 -90.28 	 974.841 	-34 	 -4 	 60 	56.0875 	 165.778 	 44.2575 	29.2 	
-670.146 	 -92.476 	 978.806 	-34 	 -4 	 60 	53.6725 	 139.974 	 36.0763 	29.2 	
-658.373 	 -90.036 	 982.954 	-33 	 -4 	 60 	50.4963 	 113.111 	 26.9413 	29.2 	
-647.82 	 -82.838 	 986.797 	-33 	 -4 	 61 	47.4425 	 84.8225 	 17.4388 	29.2 	
-637.023 	 -85.095 	 987.224 	-32 	 -4 	 61 	45.0975 	 55.405 	 7.7875 	29.2 	
-627.202 	 -82.838 	 986.98 	-32 	 -4 	 61 	42.4638 	 25.2263 	 -2.07375 	29.2 	
-615.551 	 -79.422 	 983.198 	-31 	 -3 	 62 	39.7163 	 -5.7575 	 -12.2325 	29.2 	
-605.12 	 -78.751 	 975.756 	-31 	 -3 	 62 	36.82 	 -37.135 	 -22.7238 	29.2 	
-590.541 	 -76.372 	 964.837 	-31 	 -3 	 62 	33.3288 	 -68.5213 	 -33.6088 	29.3 	
-584.014 	 -78.69 	 956.358 	-31 	 -4 	 62 	28.9275 	 -100.1 	 -44.8963 	29.3 	
-578.951 	 -84.546 	 945.805 	-31 	 -4 	 62 	24.0625 	 -131.6 	 -56.7 	29.3 	
-580.11 	 -84.729 	 936.106 	-31 	 -4 	 62 	18.725 	 -162.969 	 -69.3175 	29.3 	
-580.72 	 -81.923 	 922.808 	-32 	 -4 	 61 	12.7575 	 -193.918 	 -81.8913 	29.3 	
-585.234 	 -76.738 	 910.73 	-32 	 -4 	 61 	6.08125 	 -224.333 	 -94.7275 	29.3 	
-593.347 	 -74.542 	 897.188 	-33 	 -3 	 61 	-0.69125 	 -253.995 	 -107.546 	29.3 	
-603.595 	 -70.028 	 886.208 	-34 	 -3 	 60 	-8.12 	 -279.974 	 -119.893 	29.3 	
-620.004 	 -65.392 	 874.252 	-35 	 -3 	 59 	-15.9863 	 -286.685 	 -132.055 	29.3 	
-636.962 	 -61.427 	 863.76 	-36 	 -3 	 59 	-23.9488 	 -286.685 	 -143.343 	29.3 	
-656.238 	 -55.144 	 859.856 	-37 	 -2 	 58 	-32.06 	 -286.685 	 -153.633 	29.3 	
-675.514 	 -54.595 	 858.636 	-38 	 -2 	 58 	-40.4163 	 -286.685 	 -163.354 	29.3 	
-699.731 	 -67.832 	 858.453 	-39 	 -3 	 57 	-48.8163 	 -286.685 	 -171.439 	29.3 	
-717.787 	 -69.418 	 861.747 	-39 	 -3 	 57 	-56.875 	 -286.685 	 -178.894 	29.3 	
-732.061 	 -58.804 	 862.052 	-40 	 -2 	 57 	-65.2488 	 -286.685 	 -185.316 	29.3 	
-750.117 	 -58.011 	 863.028 	-40 	 -2 	 56 	-73.3863 	 -286.685 	 -190.461 	29.3 	
-761.89 	 -56.242 	 867.664 	-41 	 -2 	 56 	-81.6375 	 -286.685 	 -194.6 	29.2 	
-775.249 	 -64.538 	 873.276 	-41 	 -3 	 56 	-90.055 	 -286.685 	 -197.96 	29.2 	
-785.436 	 -70.516 	 878.217 	-41 	 -3 	 56 	-97.7813 	 -286.685 	 -200.48 	29.2 	
-790.438 	 -75.091 	 887.855 	-41 	 -3 	 56 	-105.009 	 -286.685 	 -202.37 	29.2 	
-794.83 	 -78.385 	 894.565 	-41 	 -3 	 56 	-111.939 	 -286.685 	 -203.56 	29.2 	
-792.634 	 -82.289 	 901.824 	-41 	 -3 	 56 	-119 	 -286.685 	 -204.059 	29.2 	
-788.425 	 -81.252 	 912.743 	-40 	 -3 	 56 	-126.254 	 -286.685 	 -204.181 	29.2 	
-789.035 	 -52.948 	 927.017 	-40 	 -2 	 57 	-133.411 	 -286.685 	 -203.954 	29.2 	
-795.135 	 -55.327 	 963.312 	-39 	 -2 	 57 	-139.93 	 -286.685 	 -202.729 	29.2 	
-800.686 	 -111.447 	 990.579 	-38 	 -5 	 57 	-147.858 	 -286.685 	 -201.049 	29.2 	
-794.281 	 -144.265 	 1008.82 	-37 	 -6 	 58 	-155.321 	 -286.685 	 -198.826 	29.2 	
-781.41 	 -161.04 	 1019.37 	-37 	 -7 	 58 	-160.545 	 -286.685 	 -196.63 	29.2 	
-756.156 	 -145.18 	 1026.26 	-36 	 -6 	 59 	-165.961 	 -286.685 	 -194.303 	29.2 	
-721.63 	 -145.546 	 1026.33 	-34 	 -6 	 60 	-171.973 	 -286.685 	 -191.214 	29.2 	
-677.283 	 -162.687 	 1023.52 	-33 	 -7 	 61 	-177.354 	 -286.685 	 -188.02 	29.2 	
-628.544 	 -187.392 	 1016.2 	-31 	 -8 	 62 	-181.641 	 -286.685 	 -184.783 	29.2 	
-575.962 	 -205.143 	 1002.05 	-29 	 -10 	 63 	-185.115 	 -286.685 	 -181.983 	29.2 	
-523.38 	 -225.822 	 991.006 	-27 	 -11 	 64 	-187.53 	 -286.685 	 -179.874 	29.2 	
-471.713 	 -239.73 	 977.098 	-25 	 -12 	 66 	-189.595 	 -286.685 	 -178.325 	29.2 	
-413.58 	 -228.689 	 960.14 	-22 	 -12 	 68 	-191.809 	 -286.685 	 -177.056 	29.2 	
-358.558 	 -207.583 	 940.376 	-20 	 -11 	 70 	-194.18 	 -286.685 	 -175.726 	29.2 	
-301.218 	 -204.594 	 922.93 	-17 	 -11 	 72 	-197.838 	 -286.685 	 -174.116 	29.2 	
-244.549 	 -214.72 	 903.288 	-14 	 -12 	 75 	-202.116 	 -286.685 	 -172.471 	29.2 	
-200.507 	 -225.456 	 887.428 	-12 	 -13 	 76 	-205.774 	 -286.685 	 -170.748 	29.2 	
-162.626 	 -241.987 	 869.189 	-10 	 -15 	 74 	-209.51 	 -286.685 	 -169.523 	29.2 	
-127.734 	 -264.252 	 845.704 	-8 	 -17 	 73 	-213.561 	 -286.685 	 -169.251 	29.2 	
-90.402 	 -275.537 	 824.232 	-5 	 -18 	 72 	-216.886 	 -286.685 	 -169.225 	29.2 	
-59.231 	 -297.009 	 806.603 	-3 	 -20 	 70 	-218.54 	 -286.685 	 -168.963 	29.2 	
-18.788 	 -334.341 	 790.072 	-1 	 -22 	 68 	-219.249 	 -286.685 	 -166.915 	29.2 	
21.106 	 -339.587 	 767.014 	1 	 -23 	 67 	-222.145 	 -286.685 	 -163.17 	29.2 	
70.272 	 -345.016 	 737.49 	4 	 -24 	 67 	-224.403 	 -286.685 	 -159.066 	29.2 	
121.024 	 -330.193 	 712.724 	8 	 -24 	 67 	-224.674 	 -286.685 	 -153.361 	29.2 	
165.615 	 -327.204 	 680.394 	12 	 -25 	 66 	-224.516 	 -286.685 	 -145.556 	29.2 	
211.426 	 -335.317 	 655.201 	16 	 -25 	 65 	-223.23 	 -286.685 	 -136.561 	29.2 	
258.152 	 -350.262 	 639.402 	19 	 -26 	 64 	-221.086 	 -286.685 	 -127.505 	29.2 	
305.183 	 -375.943 	 625.189 	22 	 -28 	 62 	-216.589 	 -286.685 	 -117.6 	29.2 	
350.018 	 -402.234 	 611.891 	25 	 -29 	 61 	-209.659 	 -286.685 	 -107.301 	29.2 	
399.306 	 -403.088 	 601.704 	28 	 -29 	 60 	-200.979 	 -286.685 	 -96.5825 	29.2 	
443.592 	 -421.144 	 595.909 	31 	 -29 	 44 	-190.829 	 -286.685 	 -85.4 	29.2 	
488.122 	 -434.076 	 588.284 	33 	 -29 	 42 	-179.778 	 -286.685 	 -74.27 	29.2 	
529.785 	 -452.803 	 585.356 	35 	 -29 	 40 	-167.589 	 -286.685 	 -62.7638 	29.3 	
569.74 	 -465.308 	 581.391 	37 	 -29 	 38 	-154.7 	 -286.685 	 -50.8813 	29.3 	
602.375 	 -481.839 	 580.903 	38 	 -29 	 36 	-140.429 	 -286.685 	 -39.0863 	29.3 	
636.718 	 -491.965 	 578.646 	39 	 -29 	 35 	-125.125 	 -286.055 	 -27.3525 	29.3 	
664.168 	 -504.531 	 579.5 	40 	 -29 	 34 	-109.813 	 -261.529 	 -15.68 	29.3 	
683.566 	 -514.413 	 578.158 	41 	 -29 	 34 	-94.2988 	 -206.028 	 -4.19125 	29.3 	
701.744 	 -507.703 	 578.036 	42 	 -29 	 33 	-78.5313 	 -147.901 	 7.07875 	29.3 	
716.323 	 -504.348 	 576.755 	43 	 -28 	 33 	-63.315 	 -89.25 	 18.4363 	29.3 	
720.898 	 -502.762 	 576.572 	43 	 -28 	 33 	-48.7288 	 -30.7125 	 29.7238 	29.3 	
721.142 	 -505.08 	 577.06 	43 	 -28 	 33 	-33.9063 	 27.7375 	 40.8713 	29.3 	
710.04 	 -504.836 	 578.768 	42 	 -28 	 33 	-18.8475 	 85.7588 	 51.5113 	29.3 	
689.422 	 -503.128 	 582.794 	41 	 -29 	 34 	-3.68375 	 142.555 	 61.565 	29.3 	
660.264 	 -497.394 	 593.53 	40 	 -29 	 35 	11.06 	 197.514 	 70.9713 	29.3 	
622.017 	 -486.536 	 604.632 	38 	 -29 	 37 	25.4625 	 250.014 	 79.8175 	29.3 	
575.779 	 -468.236 	 622.322 	36 	 -28 	 39 	39.0775 	 283.64 	 88.375 	29.3 	
523.319 	 -452.864 	 639.89 	33 	 -28 	 42 	52.255 	 286.685 	 96.7313 	29.3 	
465.918 	 -437.309 	 667.157 	30 	 -28 	 60 	64.4438 	 286.685 	 104.991 	29.3 	
399.855 	 -425.597 	 697.474 	26 	 -27 	 62 	75.9325 	 286.685 	 112.875 	29.3 	
331.779 	 -411.445 	 725.534 	21 	 -27 	 63 	86.73 	 286.685 	 120.636 	29.3 	
265.045 	 -401.136 	 750.422 	17 	 -26 	 64 	96.1975 	 286.685 	 128.371 	29.3 	
201.239 	 -392.596 	 777.14 	13 	 -26 	 65 	104.746 	 286.685 	 135.765 	29.3 	
143.96 	 -381.738 	 798.49 	9 	 -25 	 66 	111.965 	 286.685 	 143.054 	29.3 	
97.295 	 -365.268 	 813.618 	6 	 -24 	 67 	118.256 	 286.685 	 150.211 	29.3 	
56.974 	 -352.885 	 814.655 	3 	 -23 	 68 	123.813 	 286.685 	 157.098 	29.3 	
26.169 	 -361.608 	 805.688 	1 	 -24 	 67 	128.914 	 286.685 	 163.748 	29.2 	
0.793 	 -361.181 	 791.597 	0 	 -24 	 67 	133.079 	 286.685 	 170.511 	29.2 	
-29.585 	 -356.667 	 781.959 	-1 	 -24 	 67 	135.188 	 286.685 	 176.75 	29.2 	
-52.46 	 -346.114 	 774.334 	-3 	 -24 	 67 	136.343 	 286.685 	 182.263 	29.2 	
-75.335 	 -327.326 	 769.698 	-5 	 -22 	 68 	136.841 	 286.685 	 187.25 	29.2 	
-94.794 	 -311.344 	 764.452 	-6 	 -22 	 69 	136.246 	 286.685 	 192.159 	29.2 	
-116.388 	 -306.586 	 761.28 	-8 	 -21 	 69 	133.788 	 286.685 	 196.814 	29.2 	
-137.25 	 -314.882 	 759.877 	-9 	 -22 	 69 	129.955 	 286.685 	 201.084 	29.2 	
-162.077 	 -300.73 	 746.64 	-11 	 -21 	 69 	123.463 	 286.685 	 205.266 	29.2 	
-172.142 	 -266.57 	 721.691 	-12 	 -19 	 70 	114.336 	 286.685 	 209.23 	29.2 	
-183.915 	 -268.278 	 708.271 	-13 	 -20 	 70 	105.656 	 286.685 	 211.523 	29.2 	
-214.72 	 -297.314 	 713.7 	-15 	 -21 	 68 	97.2038 	 286.685 	 213.649 	29.2 	
-245.098 	 -333.182 	 724.375 	-17 	 -23 	 67 	88.0688 	 286.685 	 216.606 	29.2 	
-263.703 	 -354.654 	 727.669 	-18 	 -24 	 66 	79.7738 	 286.685 	 219.896 	29.2 	
-275.293 	 -353.983 	 723.582 	-18 	 -24 	 66 	71.7588 	 286.685 	 222.329 	29.2 	
-288.469 	 -342.881 	 722.179 	-19 	 -23 	 66 	64.2075 	 286.685 	 224.263 	29.2 	
-299.632 	 -336.598 	 719.19 	-20 	 -23 	 67 	57.225 	 286.685 	 225.663 	29.3 	
-317.383 	 -345.26 	 736.148 	-21 	 -23 	 66 	49.56 	 286.685 	 227.5 	29.3 	
-335.378 	 -363.255 	 753.96 	-21 	 -23 	 66 	40.2063 	 286.685 	 228.463 	29.3 	
-348.676 	 -369.172 	 773.297 	-22 	 -23 	 66 	31.0188 	 286.685 	 228.568 	29.3 	
-359.229 	 -367.891 	 792.756 	-22 	 -22 	 67 	22.6188 	 286.685 	 228.401 	29.3 	
-365.573 	 -365.756 	 811.178 	-22 	 -22 	 67 	14.4725 	 286.685 	 227.334 	29.3 	
-374.54 	 -367.22 	 837.225 	-22 	 -21 	 67 	6.405 	 286.685 	 224.919 	29.3 	
-379.664 	 -371.856 	 860.893 	-22 	 -21 	 68 	-2.26625 	 286.685 	 221.97 	29.3 	
-385.032 	 -377.346 	 883.707 	-21 	 -21 	 68 	-11.2963 	 286.685 	 218.234 	29.2 	
-385.642 	 -382.348 	 904.264 	-21 	 -21 	 68 	-20.9563 	 286.685 	 213.92 	29.2 	
-383.69 	 -387.594 	 924.882 	-20 	 -21 	 68 	-29.5313 	 286.685 	 208.985 	29.2 	
-383.08 	 -388.448 	 951.478 	-20 	 -20 	 69 	-37.5988 	 286.685 	 203.674 	29.2 	
-384.666 	 -415.349 	 978.318 	-19 	 -21 	 68 	-45.8675 	 286.685 	 198.153 	29.2 	
-377.346 	 -422.608 	 998.509 	-19 	 -21 	 68 	-52.5613 	 286.685 	 192.141 	29.2 	
-365.39 	 -419.009 	 1016.63 	-18 	 -21 	 69 	-57.995 	 286.685 	 185.789 	29.2 	
-354.41 	 -415.898 	 1037.61 	-17 	 -20 	 69 	-62.65 	 286.685 	 179.646 	29.2 	
-342.698 	 -436.394 	 1056.76 	-16 	 -21 	 69 	-67.0863 	 286.685 	 173.066 	29.2 	
-329.705 	 -448.777 	 1075.98 	-15 	 -21 	 68 	-70.3675 	 286.528 	 165.961 	29.2 	
-310.246 	 -451.644 	 1090.74 	-14 	 -21 	 69 	-72.5988 	 277.349 	 158.375 	29.2 	
-295.057 	 -456.402 	 1103.98 	-13 	 -21 	 69 	-74.6288 	 254.555 	 150.815 	29.2 	
-274.256 	 -464.698 	 1109.71 	-12 	 -22 	 68 	-76.4663 	 230.554 	 142.713 	29.2 	
-253.516 	 -468.48 	 1120.69 	-11 	 -22 	 68 	-78.0238 	 206.701 	 133.831 	29.2 	
-235.582 	 -481.168 	 1129.9 	-10 	 -22 	 68 	-80.1588 	 182.901 	 124.478 	29.2 	
-212.646 	 -487.573 	 1134.05 	-9 	 -22 	 68 	-81.97 	 159.434 	 114.441 	29.2 	
-188.124 	 -481.961 	 1134.54 	-8 	 -22 	 68 	-82.67 	 136.474 	 104.108 	29.2 	
-170.495 	 -482.632 	 1135.7 	-7 	 -22 	 68 	-83.3 	 114.205 	 93.8088 	29.2 	
-151.463 	 -481.168 	 1136.98 	-6 	 -22 	 68 	-84 	 92.7675 	 83.3175 	29.2 	
-133.59 	 -483.608 	 1139.79 	-6 	 -22 	 68 	-84.35 	 71.9863 	 72.7738 	29.2 	
-118.218 	 -488.183 	 1137.53 	-5 	 -23 	 68 	-83.3525 	 51.8963 	 62.4138 	29.2 	
-106.933 	 -493.246 	 1140.21 	-4 	 -23 	 68 	-81.8563 	 32.6638 	 52.115 	29.2 	
-97.966 	 -503.86 	 1139.54 	-4 	 -23 	 67 	-80.115 	 14.2013 	 42.0088 	29.2 	
-92.232 	 -519.476 	 1136.31 	-4 	 -24 	 67 	-78.0063 	 -3.465 	 31.78 	29.2 	
-89.487 	 -538.874 	 1137.16 	-4 	 -25 	 66 	-75.5738 	 -20.265 	 21.2625 	29.2 	
-90.402 	 -562.664 	 1136.98 	-4 	 -26 	 66 	-72.8613 	 -36.3125 	 10.5175 	29.2 	
-95.282 	 -582.428 	 1136.37 	-4 	 -27 	 65 	-69.7463 	 -51.695 	 -0.63 	29.2 	
-98.149 	 -591.7 	 1137.89 	-4 	 -27 	 65 	-66.8413 	 -66.5175 	 -12.4513 	29.2 	
-98.332 	 -602.192 	 1136.67 	-4 	 -27 	 64 	-64.3738 	 -80.5613 	 -24.7888 	29.2 	
-100.04 	 -607.194 	 1133.68 	-4 	 -28 	 64 	-61.7663 	 -93.8963 	 -37.2575 	29.2 	
-99.43 	 -598.471 	 1135.03 	-4 	 -27 	 64 	-58.7913 	 -106.453 	 -49.525 	29.2 	
-99.308 	 -578.402 	 1129.72 	-4 	 -27 	 65 	-55.8688 	 -117.994 	 -60.6813 	29.2 	
-103.7 	 -567.727 	 1125.57 	-4 	 -26 	 65 	-53.0775 	 -128.888 	 -70.4375 	29.2 	
-106.75 	 -568.276 	 1121 	-4 	 -26 	 65 	-50.3825 	 -138.819 	 -79.6863 	29.2 	
-110.715 	 -585.6 	 1118.5 	-5 	 -27 	 65 	-47.5475 	 -148.155 	 -89.0138 	29.2 	
-117.608 	 -593.103 	 1119.96 	-5 	 -27 	 64 	-44.4238 	 -157.106 	 -98.0525 	29.2 	
-127.063 	 -587.186 	 1116.24 	-5 	 -27 	 65 	-40.9238 	 -165.585 	 -106.243 	29.2 	
-134.383 	 -581.208 	 1112.4 	-6 	 -27 	 65 	-37.1788 	 -173.705 	 -113.873 	29.2 	
-145.79 	 -578.341 	 1111.05 	-6 	 -27 	 65 	-33.7138 	 -181.554 	 -121.039 	29.2 	
-157.502 	 -575.596 	 1110.32 	-7 	 -27 	 65 	-29.9688 	 -189.306 	 -127.741 	29.2 	
-168.36 	 -573.705 	 1107.64 	-7 	 -27 	 65 	-26.3288 	 -197.05 	 -134.059 	29.2 	
-179.279 	 -569.618 	 1104.65 	-8 	 -26 	 65 	-23.0563 	 -204.864 	 -140.114 	29.2 	
-188.063 	 -568.52 	 1099.1 	-8 	 -27 	 65 	-20.3263 	 -212.38 	 -146.186 	29.2 	
-196.969 	 -570.655 	 1090.5 	-9 	 -27 	 65 	-18.62 	 -219.8 	 -152.005 	29.2 	
-206.973 	 -571.936 	 1085.01 	-9 	 -27 	 64 	-17.57 	 -226.94 	 -157.876 	29.2 	
-217.892 	 -575.779 	 1075.31 	-10 	 -27 	 64 	-16.9925 	 -233.695 	 -163.389 	29.2 	
-231.678 	 -575.352 	 1070 	-10 	 -27 	 64 	-16.59 	 -239.899 	 -168.35 	29.2 	
-247.233 	 -562.481 	 1060.55 	-11 	 -27 	 64 	-16.5638 	 -245.779 	 -172.839 	29.2 	
-259.86 	 -544.608 	 1052.62 	-12 	 -26 	 65 	-15.7763 	 -250.906 	 -176.803 	29.2 	
-272.487 	 -534.299 	 1039.44 	-13 	 -26 	 65 	-14.9625 	 -255.491 	 -179.375 	29.2 	
-288.957 	 -533.201 	 1031.63 	-13 	 -26 	 65 	-14.1488 	 -259.394 	 -181.195 	29.2 	
-300.73 	 -525.942 	 1019.49 	-14 	 -26 	 65 	-13.0638 	 -262.518 	 -182.761 	29.2 	
-311.832 	 -508.008 	 1004.43 	-15 	 -25 	 65 	-12.18 	 -264.758 	 -184.284 	29.2 	
-321.592 	 -498.553 	 994.3 	-16 	 -25 	 65 	-11.69 	 -266.481 	 -185.395 	29.2 	
-330.803 	 -488.732 	 983.259 	-16 	 -25 	 66 	-10.6925 	 -267.304 	 -185.99 	29.2 	
-338.245 	 -477.508 	 966.301 	-17 	 -25 	 66 	-9.7125 	 -266.91 	 -185.745 	29.2 	
-340.99 	 -468.968 	 946.354 	-17 	 -24 	 66 	-8.46125 	 -265.598 	 -184.424 	29.3 	
-345.443 	 -464.576 	 931.531 	-18 	 -25 	 65 	-7.55125 	 -263.095 	 -182.376 	29.3 	
-356.24 	 -481.9 	 919.758 	-18 	 -26 	 65 	-6.90375 	 -259.455 	 -180.04 	29.3 	
-361.608 	 -491.66 	 904.935 	-19 	 -26 	 64 	-6.0725 	 -254.984 	 -177.914 	29.3 	
-367.098 	 -491.965 	 893.162 	-19 	 -26 	 64 	-5.41625 	 -249.708 	 -176.015 	29.3 	
-366.122 	 -498.614 	 877.485 	-19 	 -27 	 63 	-5.20625 	 -243.233 	 -174.186 	29.3 	
-347.334 	 -488 	 861.015 	-19 	 -27 	 63 	-3.9025 	 -235.559 	 -171.859 	29.3 	
-329.766 	 -357.887 	 847.717 	-19 	 -21 	 68 	1.1725 	 -226.153 	 -163.503 	29.3 	
-336.598 	 -289.384 	 841.19 	-20 	 -17 	 69 	1.63625 	 -215.924 	 -151.979 	29.3 	
-353.983 	 -343.613 	 831.491 	-21 	 -20 	 68 	-0.67375 	 -204.873 	 -141.059 	29.3 	
-373.93 	 -414.312 	 820.084 	-22 	 -24 	 65 	-0.97125 	 -193.218 	 -132.405 	29.3 	
-381.86 	 -428.647 	 809.653 	-22 	 -25 	 64 	0.8575 	 -180.863 	 -125.02 	29.3 	
-388.997 	 -412.726 	 799.954 	-23 	 -24 	 65 	2.98375 	 -167.816 	 -117.364 	29.3 	
-394.304 	 -398.513 	 792.207 	-23 	 -24 	 65 	5.31125 	 -154.061 	 -109.086 	29.3 	
-405.162 	 -395.768 	 782.752 	-24 	 -24 	 65 	8.30375 	 -140.026 	 -100.38 	29.3 	
-394.914 	 -379.115 	 767.624 	-24 	 -23 	 65 	10.0713 	 -125.431 	 -91.1225 	29.3 	
-386.069 	 -361.608 	 753.533 	-24 	 -23 	 65 	11.41 	 -109.279 	 -80.6488 	29.3 	
-381.128 	 -342.088 	 739.991 	-25 	 -22 	 65 	12.8363 	 -92.5138 	 -69.5275 	29.3 	
-370.148 	 -325.984 	 722.728 	-25 	 -21 	 65 	13.9738 	 -74.6813 	 -57.785 	29.3 	
-361.242 	 -318.786 	 706.99 	-24 	 -21 	 65 	14.5338 	 -55.7375 	 -45.5963 	29.3 	
-355.02 	 -312.015 	 693.509 	-25 	 -21 	 65 	14.7613 	 -35.7438 	 -33.0313 	29.3 	
-348.737 	 -312.076 	 680.638 	-24 	 -22 	 65 	14.5863 	 -14.9625 	 -20.0463 	29.3 	
-345.931 	 -334.646 	 668.194 	-24 	 -23 	 65 	14.4813 	 6.32625 	 -7.62125 	29.3 	
-341.722 	 -346.236 	 660.02 	-24 	 -24 	 65 	14.9625 	 28.4288 	 3.99 	29.3 	
-331.23 	 -341.6 	 650.687 	-24 	 -25 	 65 	15.9163 	 50.9863 	 15.1025 	29.2 	
-327.265 	 -335.378 	 641.842 	-24 	 -24 	 65 	16.415 	 73.9638 	 26.495 	29.2 	
-324.642 	 -332.877 	 636.84 	-24 	 -24 	 65 	17.1238 	 97.2125 	 37.7475 	29.2 	
-323.666 	 -336.171 	 639.951 	-24 	 -25 	 65 	17.8938 	 120.383 	 48.72 	29.2 	
-326.594 	 -336.049 	 645.624 	-24 	 -24 	 65 	18.7775 	 142.914 	 59.1938 	29.2 	
-330.803 	 -332.938 	 655.628 	-24 	 -24 	 65 	19.6525 	 164.526 	 69.4225 	29.2 	
-337.696 	 -327.509 	 674.782 	-24 	 -23 	 65 	20.9738 	 184.599 	 79.0913 	29.2 	
-349.286 	 -325.557 	 698.45 	-24 	 -22 	 65 	21.8138 	 202.676 	 88.2875 	29.2 	
-362.584 	 -328.241 	 724.802 	-24 	 -22 	 65 	22.96 	 218.313 	 96.7225 	29.2 	
-373.015 	 -331.352 	 753.289 	-24 	 -21 	 66 	23.7475 	 231.044 	 104.571 	29.2 	
-383.019 	 -334.951 	 781.227 	-24 	 -21 	 66 	24.2375 	 241.115 	 112.053 	29.2 	
-388.204 	 -343.796 	 806.603 	-23 	 -21 	 66 	24.4213 	 248.588 	 118.738 	29.2 	
-388.936 	 -351.787 	 827.16 	-23 	 -21 	 66 	24.3163 	 253.838 	 124.749 	29.2 	
-384.727 	 -355.996 	 841.556 	-22 	 -21 	 67 	24.0975 	 257.259 	 129.833 	29.2 	
-377.163 	 -358.619 	 854.244 	-22 	 -21 	 68 	23.415 	 259.123 	 134.435 	29.2 	
-364.475 	 -369.172 	 862.662 	-21 	 -21 	 68 	22.3038 	 259.963 	 138.285 	29.2 	
-353.922 	 -383.629 	 873.703 	-20 	 -22 	 68 	20.965 	 259.586 	 141.426 	29.2 	
-343.308 	 -395.463 	 880.535 	-19 	 -22 	 67 	19.9938 	 258.388 	 143.946 	29.2 	
-327.875 	 -405.406 	 882.06 	-18 	 -23 	 67 	19.5125 	 256.603 	 145.565 	29.2 	
-308.416 	 -419.375 	 872.849 	-17 	 -24 	 66 	19.2063 	 254.704 	 146.449 	29.2 	
-282.796 	 -404.43 	 859.49 	-16 	 -24 	 66 	19.4075 	 253.164 	 147.184 	29.2 	
-271.572 	 -412.177 	 858.087 	-15 	 -24 	 66 	18.0338 	 251.965 	 147.604 	29.2 	
-261.934 	 -427.793 	 859.856 	-15 	 -25 	 65 	17.3513 	 250.268 	 147.175 	29.2 	
-250.771 	 -427.488 	 860.039 	-14 	 -25 	 66 	17.0975 	 248.325 	 146.44 	29.2 	
-241.377 	 -432.124 	 860.893 	-14 	 -25 	 65 	16.4763 	 245.858 	 145.224 	29.2 	
-234.24 	 -444.873 	 866.871 	-13 	 -26 	 65 	15.715 	 242.996 	 143.614 	29.2 	
-228.384 	 -454.877 	 872.91 	-13 	 -26 	 65 	15.4263 	 239.068 	 141.54 	29.2 	
-221.979 	 -461.526 	 880.23 	-12 	 -26 	 65 	15.0938 	 234.115 	 138.714 	29.2 	
-216.428 	 -465.186 	 885.11 	-12 	 -27 	 65 	14.6038 	 228.401 	 135.616 	29.2 	
-208.071 	 -470.066 	 894.382 	-11 	 -27 	 65 	13.9738 	 221.603 	 131.959 	29.2 	
-200.69 	 -477.081 	 901.397 	-11 	 -27 	 64 	13.0113 	 214.296 	 127.671 	29.2 	
-193.309 	 -483.303 	 907.375 	-10 	 -27 	 64 	11.725 	 205.914 	 122.719 	29.2 	
-187.209 	 -490.379 	 915.244 	-10 	 -27 	 64 	10.0713 	 196.753 	 117.154 	29.2 	
-180.499 	 -500.871 	 921.832 	-9 	 -28 	 64 	8.35625 	 187.119 	 110.863 	29.2 	
-172.752 	 -509.472 	 927.81 	-9 	 -28 	 64 	6.57125 	 176.549 	 104.309 	29.2 	
-164.029 	 -512.4 	 934.215 	-8 	 -28 	 64 	4.83 	 165.139 	 97.2038 	29.2 	
-159.332 	 -515.023 	 941.718 	-8 	 -28 	 64 	3.22 	 152.95 	 89.9413 	29.2 	
-154.574 	 -519.537 	 951.417 	-8 	 -28 	 64 	1.53125 	 140.114 	 82.4338 	29.2 	
-148.962 	 -520.696 	 958.493 	-7 	 -28 	 64 	-0.1575 	 126.376 	 74.4975 	29.2 	
-146.888 	 -521.001 	 965.996 	-7 	 -28 	 64 	-2.02125 	 112.28 	 65.8788 	29.2 	
-141.215 	 -520.208 	 972.706 	-7 	 -27 	 64 	-4.1475 	 97.4225 	 56.84 	29.2 	
-140.178 	 -515.206 	 979.538 	-7 	 -27 	 65 	-6.51875 	 81.9 	 47.7313 	29.2 	
-140.666 	 -509.106 	 988.078 	-7 	 -27 	 65 	-8.6275 	 66.0975 	 38.0975 	29.2 	
-142.435 	 -510.082 	 991.677 	-7 	 -26 	 65 	-10.7188 	 49.8575 	 28.14 	29.2 	
-143.533 	 -514.901 	 995.337 	-7 	 -27 	 65 	-12.6438 	 33.46 	 17.9463 	29.2 	
-144.021 	 -519.781 	 997.899 	-7 	 -27 	 65 	-14.5163 	 16.765 	 7.41125 	29.2 	
-146.4 	 -520.33 	 1000.1 	-7 	 -27 	 65 	-15.8725 	 0.11375 	 -3.115 	29.2 	
-146.827 	 -519.354 	 997.899 	-7 	 -27 	 65 	-16.975 	 -16.4938 	 -13.2913 	29.2 	
-146.339 	 -513.193 	 995.276 	-7 	 -27 	 65 	-17.8763 	 -32.4888 	 -23.2313 	29.3 	
-146.034 	 -506.117 	 988.688 	-7 	 -26 	 65 	-18.69 	 -48.0113 	 -32.8125 	29.3 	
-147.01 	 -501.542 	 983.808 	-7 	 -26 	 65 	-19.5038 	 -62.8688 	 -41.9038 	29.3 	
-150.609 	 -496.662 	 976.915 	-7 	 -26 	 65 	-19.985 	 -77.0438 	 -50.6625 	29.3 	
-152.5 	 -494.527 	 968.924 	-7 	 -26 	 65 	-20.72 	 -90.5713 	 -59.29 	29.3 	
-150.609 	 -493.612 	 960.994 	-7 	 -26 	 65 	-21.5863 	 -103.303 	 -67.865 	29.3 	
-157.624 	 -504.958 	 956.602 	-8 	 -27 	 64 	-23.03 	 -115.491 	 -76.1775 	29.3 	
-163.175 	 -513.315 	 948.672 	-8 	 -28 	 64 	-24.4213 	 -127.059 	 -84.3238 	29.3 	
-168.543 	 -511.241 	 940.315 	-8 	 -28 	 64 	-25.935 	 -137.786 	 -92.19 	29.3 	
-176.839 	 -507.825 	 932.385 	-9 	 -28 	 64 	-27.8425 	 -147.788 	 -99.3475 	29.3 	
-183.671 	 -510.143 	 929.518 	-9 	 -28 	 64 	-30.1963 	 -156.958 	 -106.015 	29.3 	
-195.993 	 -512.339 	 923.784 	-10 	 -28 	 64 	-31.7275 	 -165.585 	 -111.895 	29.3 	
-206.912 	 -513.986 	 917.562 	-11 	 -28 	 63 	-33.285 	 -173.206 	 -117.294 	29.3 	
-217.831 	 -513.925 	 915.061 	-11 	 -28 	 63 	-34.9388 	 -180.259 	 -122.211 	29.3 	
-226.493 	 -515.389 	 912.56 	-12 	 -28 	 63 	-36.68 	 -186.664 	 -126.49 	29.3 	
-238.632 	 -508.13 	 913.78 	-12 	 -28 	 64 	-38.5175 	 -192.439 	 -130.261 	29.3 	
-251.991 	 -499.224 	 917.257 	-13 	 -27 	 64 	-40.0838 	 -197.776 	 -133.726 	29.3 	
-263.886 	 -492.27 	 912.804 	-14 	 -27 	 64 	-41.5275 	 -202.519 	 -136.325 	29.3 	
-273.585 	 -493.185 	 911.157 	-14 	 -27 	 64 	-43.05 	 -206.439 	 -138.128 	29.3 	
-284.565 	 -491.538 	 909.571 	-15 	 -27 	 64 	-44.5463 	 -209.991 	 -139.764 	29.3 	
-290.482 	 -480.863 	 908.229 	-15 	 -26 	 64 	-45.5438 	 -212.45 	 -140.691 	29.3 	
-297.558 	 -461.648 	 905.545 	-16 	 -25 	 65 	-45.9113 	 -214.174 	 -140.884 	29.3 	
-306.952 	 -455.853 	 902.007 	-16 	 -25 	 65 	-46.6113 	 -215.294 	 -140.42 	29.3 	
-313.906 	 -456.28 	 899.689 	-17 	 -25 	 65 	-47.355 	 -215.679 	 -139.825 	29.3 	
-319.152 	 -448.777 	 897.127 	-17 	 -25 	 65 	-47.5738 	 -214.953 	 -138.959 	29.2 	
-325.008 	 -439.993 	 892.918 	-18 	 -24 	 66 	-48.1075 	 -213.351 	 -137.55 	29.2 	
-330.62 	 -432.612 	 890.173 	-18 	 -24 	 66 	-48.3875 	 -210.893 	 -135.678 	29.2 	
-332.328 	 -432.49 	 888.038 	-18 	 -24 	 66 	-48.4138 	 -207.62 	 -133.149 	29.2 	
-336.049 	 -429.562 	 887.001 	-18 	 -24 	 66 	-48.1163 	 -203.298 	 -129.868 	29.2 	
-340.685 	 -428.281 	 883.768 	-19 	 -24 	 66 	-47.355 	 -198.301 	 -126.394 	29.2 	
-344.528 	 -423.035 	 883.463 	-19 	 -24 	 66 	-46.165 	 -192.675 	 -122.211 	29.2 	
-346.48 	 -418.338 	 878.583 	-19 	 -23 	 66 	-44.3713 	 -186.191 	 -117.565 	29.2 	
-347.944 	 -416.386 	 877.302 	-19 	 -23 	 66 	-42.4638 	 -179.261 	 -112.219 	29.2 	
-347.212 	 -416.264 	 875.838 	-19 	 -23 	 66 	-40.3463 	 -171.518 	 -106.706 	29.2 	
-345.199 	 -420.595 	 872.544 	-19 	 -24 	 66 	-37.9138 	 -163.319 	 -100.966 	29.2 	
-345.504 	 -420.168 	 871.629 	-19 	 -24 	 66 	-35.4638 	 -154.805 	 -94.5525 	29.2 	
-343.186 	 -420.717 	 872.056 	-19 	 -24 	 66 	-33.1713 	 -145.836 	 -88.445 	29.2 	
-345.26 	 -422.73 	 873.642 	-19 	 -24 	 66 	-30.8263 	 -136.605 	 -82.1713 	29.2 	
-341.844 	 -425.414 	 873.642 	-19 	 -24 	 66 	-28.525 	 -127.33 	 -75.6525 	29.2 	
-339.77 	 -425.597 	 873.947 	-19 	 -24 	 66 	-26.5213 	 -118.064 	 -69.1163 	29.2 	
-335.927 	 -425.902 	 877.912 	-18 	 -24 	 66 	-24.395 	 -108.465 	 -62.5013 	29.2 	
-333.67 	 -424.194 	 876.875 	-18 	 -24 	 66 	-22.3563 	 -98.9888 	 -55.4925 	29.2 	
-333.304 	 -424.926 	 876.997 	-18 	 -24 	 66 	-20.3175 	 -89.635 	 -48.65 	29.2 	
-328.546 	 -427.122 	 876.021 	-18 	 -24 	 66 	-18.1213 	 -80.1763 	 -41.6413 	29.2 	
-324.215 	 -424.804 	 878.644 	-18 	 -24 	 66 	-15.4438 	 -70.7438 	 -34.5713 	29.2 	
-323.117 	 -431.697 	 879.193 	-18 	 -24 	 66 	-13.02 	 -61.3988 	 -27.7288 	29.2 	
-321.653 	 -422.486 	 882.731 	-18 	 -24 	 66 	-9.80875 	 -52.885 	 -21.0613 	29.2 	
-306.952 	 -415.288 	 879.986 	-17 	 -24 	 66 	-8.2425 	 -44.4238 	 -13.6938 	29.2 	
-297.68 	 -437.919 	 874.252 	-16 	 -25 	 65 	-5.845 	 -35.7963 	 -6.69375 	29.3 	
-283.284 	 -434.93 	 873.581 	-16 	 -25 	 65 	-2.9575 	 -26.95 	 -0.53375 	29.3 	
-266.021 	 -428.464 	 869.494 	-15 	 -25 	 66 	-0.4025 	 -18.2175 	 5.8975 	29.3 	
-253.15 	 -433.1 	 864.614 	-14 	 -25 	 65 	2.30125 	 -9.54625 	 11.8738 	29.3 	
-237.656 	 -440.542 	 859.856 	-13 	 -26 	 65 	5.10125 	 -0.7 	 17.3163 	29.3 	
-222.467 	 -446.459 	 857.721 	-12 	 -26 	 65 	7.41125 	 7.91875 	 22.4613 	29.3 	
-208.071 	 -449.814 	 856.806 	-12 	 -27 	 65 	9.905 	 16.2575 	 27.1688 	29.3 	
-195.2 	 -453.901 	 851.438 	-11 	 -27 	 64 	11.9263 	 24.3425 	 31.6138 	29.3 	
-181.414 	 -457.439 	 849.242 	-10 	 -27 	 64 	13.8338 	 32.1388 	 35.5863 	29.3 	
-172.508 	 -462.99 	 847.839 	-10 	 -28 	 64 	15.3913 	 39.5238 	 39.1388 	29.3 	
-162.626 	 -474.702 	 845.338 	-9 	 -28 	 63 	16.6513 	 46.375 	 42.3588 	29.3 	
-153.964 	 -479.948 	 844.667 	-9 	 -29 	 63 	17.675 	 52.6488 	 45.115 	29.3 	
-147.01 	 -483.364 	 844.911 	-8 	 -29 	 63 	18.3225 	 58.4675 	 47.5738 	29.3 	
-138.287 	 -488.122 	 843.508 	-8 	 -29 	 63 	18.795 	 63.6213 	 49.8925 	29.3 	
-131.455 	 -495.747 	 843.935 	-7 	 -30 	 63 	19.1713 	 68.1013 	 51.8525 	29.3 	
-124.44 	 -503.189 	 842.349 	-7 	 -30 	 62 	19.215 	 72.1963 	 53.48 	29.3 	
-120.719 	 -506.788 	 844.118 	-6 	 -30 	 62 	19.2325 	 75.355 	 54.6613 	29.2 	
-115.412 	 -513.559 	 846.924 	-6 	 -30 	 62 	18.9875 	 77.7788 	 55.5888 	29.2 	
-112.057 	 -522.77 	 848.693 	-6 	 -31 	 62 	18.8038 	 79.8438 	 56.2188 	29.2 	
-103.334 	 -525.82 	 849.242 	-5 	 -31 	 62 	18.4625 	 81.1213 	 56.56 	29.2 	
-99.247 	 -527.894 	 853.573 	-5 	 -31 	 62 	17.675 	 81.8913 	 56.6475 	29.2 	
-96.563 	 -530.578 	 853.756 	-5 	 -31 	 62 	16.8 	 81.9263 	 56.3413 	29.2 	
-92.049 	 -530.7 	 855.22 	-5 	 -31 	 62 	15.7675 	 81.48 	 55.7025 	29.2 	
-85.461 	 -529.48 	 854.488 	-4 	 -31 	 62 	14.525 	 80.675 	 54.705 	29.2 	
-82.838 	 -533.323 	 856.318 	-4 	 -31 	 62 	13.125 	 79.3625 	 53.1388 	29.3 	
-77.897 	 -537.044 	 856.013 	-4 	 -31 	 62 	11.8388 	 77.8138 	 51.4763 	29.3 	
-73.383 	 -539.728 	 857.477 	-4 	 -32 	 61 	10.6925 	 75.88 	 49.8838 	29.3 	
-67.466 	 -537.959 	 857.355 	-3 	 -32 	 62 	9.695 	 73.6225 	 48.02 	29.3 	
-66.124 	 -538.264 	 856.44 	-3 	 -32 	 61 	8.5575 	 71.2163 	 46.0425 	29.3 	
-60.573 	 -536.19 	 855.098 	-3 	 -32 	 62 	7.5775 	 68.4425 	 43.61 	29.3 	
-54.9 	 -534.909 	 852.963 	-3 	 -32 	 62 	6.9475 	 65.5288 	 41.09 	29.3 	
-49.41 	 -535.336 	 846.802 	-2 	 -32 	 61 	6.37 	 62.895 	 38.2638 	29.3 	
-44.286 	 -539.85 	 838.567 	-2 	 -32 	 61 	5.81875 	 60.1038 	 35.3063 	29.3 	
-38.918 	 -533.018 	 830.698 	-2 	 -32 	 61 	5.145 	 57.925 	 32.165 	29.3 	
-37.027 	 -535.885 	 829.234 	-2 	 -32 	 61 	3.535 	 55.79 	 29.3038 	29.3 	
-39.65 	 -545.767 	 829.417 	-2 	 -33 	 61 	1.67125 	 53.3663 	 26.1013 	29.3 	
-37.454 	 -549.549 	 828.197 	-2 	 -33 	 61 	0.455 	 50.7238 	 22.6013 	29.3 	
-37.698 	 -546.011 	 825.147 	-2 	 -33 	 61 	-0.98875 	 48.0113 	 19.215 	29.3 	
-40.077 	 -544.12 	 825.208 	-2 	 -33 	 61 	-2.61625 	 45.2288 	 15.75 	29.3 	
-40.382 	 -545.34 	 821.853 	-2 	 -33 	 61 	-4.445 	 42.07 	 12.3025 	29.3 	
-40.87 	 -544.242 	 822.402 	-2 	 -33 	 61 	-5.94125 	 38.8413 	 8.75 	29.2 	
-43.859 	 -542.9 	 823.378 	-2 	 -33 	 61 	-7.77 	 35.4025 	 5.0575 	29.2 	
-45.445 	 -542.961 	 822.219 	-2 	 -33 	 61 	-9.6425 	 31.8938 	 1.3475 	29.2 	
-45.872 	 -541.314 	 823.073 	-2 	 -33 	 61 	-11.165 	 28.28 	 -2.4325 	29.2 	
-49.471 	 -537.227 	 823.317 	-2 	 -33 	 61 	-12.7313 	 24.5875 	 -6.475 	29.2 	
-51.301 	 -535.031 	 822.646 	-2 	 -32 	 61 	-14.5863 	 20.5713 	 -10.535 	29.2 	
-52.582 	 -530.578 	 824.964 	-3 	 -32 	 61 	-16.1613 	 16.2838 	 -14.3588 	29.2 	
-54.412 	 -529.48 	 825.452 	-3 	 -32 	 61 	-17.5613 	 11.8388 	 -18.2963 	29.2 	
-56.425 	 -524.844 	 827.526 	-3 	 -32 	 61 	-18.9088 	 6.76375 	 -22.1638 	29.2 	
-56.242 	 -544.181 	 834.663 	-3 	 -33 	 61 	-19.9063 	 1.5575 	 -25.935 	29.2 	
-60.024 	 -526.491 	 844.789 	-3 	 -31 	 62 	-18.8913 	 -4.50625 	 -29.6188 	29.2 	
-73.566 	 -511.241 	 854.488 	-4 	 -30 	 62 	-21.77 	 -11.9788 	 -32.97 	29.2 	
-77.836 	 -527.406 	 853.939 	-4 	 -31 	 62 	-26.635 	 -20.0988 	 -37.2663 	29.2 	
-69.662 	 -524.356 	 841.739 	-4 	 -31 	 62 	-28.8925 	 -28 	 -42.1838 	29.2 	
-65.392 	 -495.625 	 832.284 	-3 	 -30 	 62 	-30.3625 	 -35.3325 	 -47.2763 	29.2 	
-62.281 	 -487.634 	 826.794 	-3 	 -30 	 63 	-33.075 	 -42.175 	 -51.9575 	29.2 	
-63.501 	 -497.028 	 819.474 	-3 	 -31 	 62 	-35.7525 	 -48.6938 	 -56.3325 	29.2 	
-59.902 	 -510.997 	 808.067 	-3 	 -32 	 61 	-37.8788 	 -54.7663 	 -60.375 	29.2 	
-50.203 	 -510.021 	 792.024 	-3 	 -32 	 61 	-38.92 	 -60.1213 	 -64.47 	29.2 	
-40.199 	 -499.346 	 779.336 	-2 	 -32 	 61 	-40.4425 	 -64.4788 	 -68.2238 	29.2 	
-37.515 	 -501.359 	 766.099 	-2 	 -33 	 61 	-42.3238 	 -67.9175 	 -71.5225 	29.2 	
-31.598 	 -544.12 	 717.848 	-2 	 -37 	 58 	-41.8513 	 -70.245 	 -75.9413 	29.2 	
-6.71 	 -401.014 	 662.094 	0 	 -31 	 62 	-30.31 	 -68.9763 	 -81.6288 	29.2 	
-12.017 	 -391.986 	 656.177 	0 	 -30 	 62 	-27.7113 	 -66.675 	 -81.2788 	29.2 	
-57.462 	 -496.54 	 673.135 	-3 	 -36 	 59 	-31.8675 	 -65.7213 	 -81.8825 	29.2 	
-102.297 	 -536.068 	 727.12 	-6 	 -36 	 59 	-35.735 	 -67.2613 	 -85.9775 	29.2 	
-215.452 	 -570.411 	 855.159 	-11 	 -32 	 60 	-37.065 	 -71.4613 	 -89.6963 	29.2 	
-1087.93 	 -1294.97 	 1998.6 	-24 	 -29 	 61 	-12.1013 	 -96.005 	 -88.4888 	29.2 	
-1315.95 	 -673.074 	 1998.6 	-31 	 -15 	 61 	48.2913 	 -166.985 	 -83.7988 	29.2 	
-762.927 	 231.312 	 1916.01 	-21 	 6 	 69 	16.8525 	 -232.619 	 -83.02 	29.2 	
-350.567 	 -228.323 	 1338.4 	-14 	 -9 	 75 	-24.9463 	 -268.818 	 -71.5138 	29.2 	
296.399 	 -948.977 	 1014.13 	12 	 -41 	 45 	20.5975 	 -239.811 	 -50.75 	29.2 	
219.844 	 -238.388 	 679.906 	16 	 -18 	 71 	82.3463 	 -132.204 	 -4.54125 	29.2 	
200.568 	 -121.634 	 685.64 	16 	 -9 	 74 	88.6725 	 -17.3775 	 62.1688 	29.2 	
-126.88 	 -1108.37 	 970.937 	-4 	 -48 	 41 	85.1113 	 59.8063 	 85.295 	29.2 	
-363.072 	 -1083.42 	 878.4 	-14 	 -52 	 37 	80.5788 	 80.2025 	 7.595 	29.2 	
-229.726 	 -390.156 	 832.04 	-14 	 -24 	 66 	83.9125 	 69.6063 	 -52.8588 	29.2 	
-115.473 	 -92.964 	 692.838 	-9 	 -7 	 80 	96.5038 	 57.505 	 -47.9325 	29.2 	
-118.645 	 -300.974 	 624.213 	-9 	 -25 	 66 	99.0063 	 47.2588 	 -29.6363 	29.2 	
-209.047 	 -523.136 	 681.248 	-13 	 -36 	 58 	98.7088 	 36.6538 	 -25.3225 	29.2 	
-273.89 	 -571.326 	 780.983 	-15 	 -34 	 59 	91 	 21.7438 	 -35.6038 	29.2 	
-319.457 	 -443.897 	 880.169 	-17 	 -25 	 65 	80.2813 	 2.1525 	 -43.225 	29.2 	
-312.198 	 -386.008 	 877.302 	-18 	 -22 	 68 	69.4225 	 -19.9238 	 -40.5475 	29.2 	
-341.234 	 -484.584 	 884.866 	-18 	 -27 	 64 	60.7338 	 -42.1663 	 -36.645 	29.2 	
-356.667 	 -521.672 	 926.285 	-18 	 -27 	 63 	56.7 	 -65.8088 	 -35.455 	29.2 	
-302.316 	 -500.444 	 883.158 	-16 	 -28 	 63 	52.815 	 -88.0425 	 -34.1775 	29.2 	
-122.671 	 -684.176 	 749.751 	-6 	 -42 	 56 	61.565 	 -86.1525 	 -19.5125 	29.2 	
11.59 	 -770.918 	 621.468 	0 	 -51 	 38 	73.8675 	 -50.3738 	 2.40625 	29.2 	
63.135 	 -932.69 	 749.69 	3 	 -51 	 38 	79.7738 	 -1.1375 	 13.0025 	29.3 	
-21.655 	 -695.034 	 904.447 	-1 	 -37 	 58 	77.7175 	 37.73 	 5.985 	29.3 	
-134.383 	 -457.073 	 1031.14 	-6 	 -23 	 67 	73.3075 	 51.7738 	 -6.9125 	29.3 	
-216.611 	 -289.384 	 999.729 	-11 	 -15 	 74 	68.32 	 42.6563 	 -17.6575 	29.3 	
-270.901 	 -248.819 	 999.851 	-14 	 -13 	 75 	70.6213 	 20.895 	 -18.7688 	29.3 	
-232.471 	 -173.118 	 942.633 	-13 	 -10 	 76 	77.77 	 -5.285 	 -14.9275 	29.3 	
-157.624 	 -270.901 	 847.717 	-10 	 -17 	 73 	79.6863 	 -27.825 	 -10.6225 	29.3 	
-63.074 	 -426.695 	 785.375 	-4 	 -28 	 64 	84.6738 	 -35.385 	 -3.57875 	29.3 	
-28.426 	 -597.922 	 757.986 	-1 	 -38 	 58 	93.7563 	 -27.5713 	 3.66625 	29.2 	
-23.058 	 -595.055 	 765.916 	-1 	 -37 	 58 	104.703 	 -13.4488 	 9.23125 	29.2 	
-20.069 	 -595.421 	 766.465 	-1 	 -37 	 58 	106.523 	 0.0525 	 9.72125 	29.2 	
-82.228 	 -559.736 	 847.107 	-4 	 -33 	 61 	102.638 	 8.75 	 8.74125 	29.2 	
-127.49 	 -552.782 	 879.864 	-6 	 -31 	 61 	99.505 	 8.7325 	 5.99375 	29.2 	
-157.685 	 -534.421 	 917.44 	-8 	 -29 	 63 	100.45 	 2.1 	 2.205 	29.2 	
-128.039 	 -488.793 	 869.25 	-7 	 -29 	 63 	109.305 	 -6.16 	 1.995 	29.2 	
-80.581 	 -354.349 	 793.793 	-5 	 -23 	 67 	120.374 	 -12.5038 	 7.0875 	29.2 	
-31.964 	 -234.911 	 767.563 	-2 	 -17 	 73 	125.405 	 -17.5263 	 17.2813 	29.2 	
29.951 	 -228.14 	 823.866 	2 	 -15 	 75 	124.749 	 -21.6825 	 32.9612 	29.2 	
121.451 	 -310.002 	 938.424 	7 	 -18 	 72 	117.968 	 -24.6575 	 48.6238 	29.2 	
141.093 	 -377.041 	 1113.43 	6 	 -18 	 72 	106.365 	 -23.8788 	 54.2675 	29.2 	
-8.54 	 -360.998 	 1241.84 	0 	 -16 	 74 	95.9613 	 -19.2413 	 53.8738 	29.2 	
-34.648 	 -389.729 	 1326.2 	-1 	 -16 	 74 	82.3113 	 -16.73 	 54.7138 	29.2 	
-72.773 	 -345.626 	 1362.19 	-2 	 -14 	 76 	68.25 	 -18.305 	 56.2013 	29.2 	
-90.585 	 -291.58 	 1318.94 	-3 	 -12 	 77 	54.6 	 -24.1063 	 59.2463 	29.2 	
-71.492 	 -277.794 	 1200.97 	-3 	 -13 	 77 	42.4375 	 -31.3863 	 62.7113 	29.3 	
-28.975 	 -300.974 	 1075.49 	-1 	 -15 	 74 	35.4813 	 -36.3825 	 65.2313 	29.3 	
-13.359 	 -266.814 	 971.791 	0 	 -15 	 75 	35.385 	 -38.2375 	 66.5787 	29.3 	
11.346 	 -256.261 	 847.168 	0 	 -16 	 73 	39.7513 	 -38.2988 	 68.3463 	29.3 	
14.152 	 -258.457 	 763.354 	1 	 -18 	 72 	45.9638 	 -36.3388 	 68.915 	29.3 	
-14.03 	 -257.664 	 767.136 	0 	 -18 	 72 	51.835 	 -34.1688 	 67.8738 	29.3 	
-58.987 	 -278.709 	 819.474 	-3 	 -18 	 72 	57.3825 	 -35.0788 	 68.005 	29.3 	
-80.215 	 -341.234 	 888.038 	-4 	 -20 	 70 	65.0825 	 -37.6688 	 68.8275 	29.3 	
-86.315 	 -355.203 	 927.017 	-4 	 -20 	 70 	75.0225 	 -40.1363 	 71.1725 	29.2 	
-67.527 	 -315.675 	 931.165 	-3 	 -18 	 72 	83.8338 	 -40.6438 	 75.46 	29.2 	
-50.813 	 -307.379 	 914.756 	-3 	 -18 	 72 	87.9113 	 -40.11 	 79.4763 	29.2 	
-48.556 	 -315.248 	 925.126 	-2 	 -18 	 72 	88.9088 	 -39.445 	 82.11 	29.2 	
-72.529 	 -330.254 	 961.726 	-4 	 -18 	 72 	87.5613 	 -38.8938 	 82.8888 	29.2 	
-73.2 	 -386.13 	 994.666 	-3 	 -21 	 70 	85.4613 	 -39.795 	 83.0288 	29.2 	
-86.132 	 -402.844 	 1010.28 	-4 	 -21 	 69 	84.4638 	 -41.2388 	 82.0925 	29.2 	
-89.426 	 -417.057 	 989.725 	-4 	 -22 	 68 	82.9063 	 -41.3088 	 81.0775 	29.2 	
-80.337 	 -415.715 	 987.59 	-4 	 -22 	 68 	81.3663 	 -40.1888 	 80.57 	29.2 	
-86.559 	 -404.064 	 973.072 	-4 	 -22 	 69 	79.3625 	 -38.4913 	 79.3888 	29.2 	
-70.821 	 -390.278 	 980.514 	-3 	 -21 	 69 	75.425 	 -38.0888 	 78.0763 	29.2 	
-50.447 	 -368.379 	 947.025 	-2 	 -21 	 70 	71.5575 	 -37.6338 	 76.65 	29.2 	
-52.155 	 -385.886 	 938.302 	-2 	 -22 	 69 	67.9875 	 -35.3238 	 74.7338 	29.2 	
-62.037 	 -425.963 	 950.563 	-3 	 -24 	 67 	64.8287 	 -32.5763 	 71.2425 	29.2 	
-102.846 	 -438.468 	 978.684 	-5 	 -24 	 67 	63.1838 	 -31.08 	 67.3838 	29.2 	
-101.199 	 -449.204 	 969.473 	-5 	 -24 	 67 	62.2125 	 -30.1 	 62.9913 	29.2 	
-133.529 	 -445.056 	 975.085 	-7 	 -24 	 67 	61.0488 	 -29.225 	 56.84 	29.2 	
-151.402 	 -438.651 	 949.77 	-8 	 -24 	 67 	60.62 	 -28.0525 	 50.33 	29.2 	
-157.502 	 -426.268 	 944.829 	-8 	 -23 	 67 	60.3225 	 -26.5825 	 42.8663 	29.2 	
-169.824 	 -445.544 	 921.832 	-9 	 -25 	 66 	61.0575 	 -24.5788 	 34.8163 	29.2 	
-175.009 	 -433.832 	 897.188 	-9 	 -25 	 66 	64.6888 	 -21.3325 	 24.7013 	29.2 	
-168.36 	 -433.466 	 851.56 	-9 	 -26 	 65 	68.5125 	 -17.3075 	 12.775 	29.2 	
-187.941 	 -439.932 	 823.744 	-11 	 -27 	 64 	73.4038 	 -12.495 	 -1.07625 	29.2 	
-213.744 	 -461.465 	 815.631 	-12 	 -28 	 63 	82.0663 	 -7.9975 	 -16.24 	29.2 	
-199.653 	 -453.596 	 820.572 	-12 	 -28 	 64 	96.3025 	 -5.6175 	 -32.5938 	29.2 	
-154.696 	 -432.063 	 768.966 	-9 	 -28 	 63 	115.281 	 -4.34875 	 -50.6188 	29.2 	
-41.541 	 -324.52 	 718.824 	-3 	 -24 	 67 	133.411 	 -4.1825 	 -69.3963 	29.2 	
89.426 	 -245.22 	 567.971 	8 	 -23 	 68 	146.414 	 -2.59875 	 -88.5063 	29.2 	
113.643 	 -222.04 	 456.89 	12 	 -25 	 66 	155.453 	 6.08125 	 -106.225 	29.2 	
122.976 	 -183.305 	 429.562 	14 	 -22 	 68 	163.223 	 20.895 	 -119.613 	29.2 	
90.036 	 -210.999 	 526.674 	9 	 -21 	 69 	170.004 	 35.805 	 -131.259 	29.2 	
-18.056 	 -276.208 	 726.266 	-1 	 -20 	 70 	179.305 	 43.6538 	 -142.756 	29.2 	
-142.13 	 -304.024 	 972.096 	-7 	 -17 	 73 	188.878 	 37.59 	 -155.024 	29.2 	
-205.875 	 -336.354 	 1125.08 	-9 	 -16 	 74 	198.555 	 16.94 	 -166.381 	29.2 	
-74.359 	 -366.061 	 1057.13 	-3 	 -19 	 71 	214.778 	 -0.7175 	 -173.749 	29.2 	
47.946 	 -270.657 	 799.771 	3 	 -18 	 72 	234.754 	 2.94875 	 -174.563 	29.2 	
-83.326 	 -12.383 	 724.68 	-6 	 0 	 83 	239.391 	 10.6838 	 -175.053 	29.2 	
-167.201 	 22.204 	 802.577 	-11 	 1 	 78 	225.234 	 -0.20125 	 -177.949 	29.2 	
-212.402 	 -10.492 	 886.574 	-13 	 0 	 76 	210.971 	 -16.3712 	 -178.29 	29.2 	
-141.52 	 -226.737 	 1009 	-7 	 -12 	 77 	207.463 	 -30.695 	 -173.968 	29.2 	
-146.461 	 -484.95 	 1075.61 	-7 	 -24 	 67 	223.3 	 -24.9638 	 -166.828 	29.3 	
-396.927 	 -714.249 	 1239.21 	-15 	 -28 	 63 	244.921 	 -3.7975 	 -158.944 	29.3 	
-842.227 	 -971.12 	 1488.64 	-25 	 -29 	 61 	258.038 	 8.68 	 -145.355 	29.3 	
-901.275 	 -1611.8 	 1536.89 	-22 	 -42 	 39 	257.084 	 1.63625 	 -67.2175 	29.3 	
-403.637 	 890.051 	 1857.51 	-11 	 25 	 66 	230.633 	 -1.9075 	 -5.9325 	29.3 	
-302.804 	 1998.6 	 1998.6 	-6 	 44 	 44 	-49.4288 	 -8.3475 	 -8.89 	29.3 	
483.303 	 -1649.68 	 1998.6 	10 	 -38 	 57 	-157.623 	 -16.135 	 16.5988 	29.3 	
339.343 	 -1500.05 	 1931.99 	7 	 -37 	 58 	-5.71375 	 -6.23 	 14.1575 	29.3 	
-279.014 	 -278.343 	 730.902 	-19 	 -19 	 70 	32.41 	 6.475 	 9.51125 	29.2 	
-32.94 	 474.031 	 146.583 	-3 	 72 	 17 	7.98 	 9.28375 	 10.6225 	29.2 	
73.2 	 582.489 	 7.137 	7 	 89 	 0 	-47.0575 	 18.8475 	 16.8788 	29.2 	
70.211 	 494.649 	 247.843 	7 	 63 	 26 	-85.1375 	 27.16 	 28.3063 	29.2 	
56.913 	 232.593 	 607.316 	5 	 20 	 70 	-114.1 	 24.1938 	 33.5738 	29.2 	
-84.119 	 -25.437 	 1096.41 	-4 	 -1 	 85 	-123.27 	 3.31625 	 30.6775 	29.2 	
-273.707 	 -253.333 	 1391.41 	-10 	 -10 	 79 	-120.829 	 -33.5213 	 19.7838 	29.2 	
-350.933 	 -321.836 	 1268.62 	-15 	 -13 	 75 	-108.85 	 -73.6488 	 9.31875 	29.2 	
117.547 	 -685.64 	 842.959 	6 	 -38 	 57 	-84.4288 	 -78.1638 	 2.625 	29.2 	
388.631 	 -713.09 	 530.944 	23 	 -56 	 33 	-37.0038 	 -17.1063 	 -0.2975 	29.2 	
129.198 	 -571.265 	 730.902 	7 	 -37 	 58 	-8.05875 	 46.27 	 -8.09375 	29.2 	
-535.58 	 16.348 	 1279.66 	-22 	 0 	 68 	-6.23875 	 56.8313 	 -15.575 	29.2 	
-519.476 	 -163.602 	 1329.19 	-21 	 -6 	 69 	-17.8675 	 21.4025 	 -16.38 	29.2 	
-510.265 	 -151.097 	 1141.62 	-23 	 -6 	 67 	-31.08 	 -15.0325 	 -19.6263 	29.2 	
-121.085 	 -498.614 	 871.08 	-6 	 -29 	 63 	-35.98 	 -34.9038 	 -13.0288 	29.2 	
147.925 	 -492.758 	 704.916 	9 	 -34 	 60 	-26.3463 	 -24.64 	 -7.805 	29.2 	
225.517 	 -445.239 	 799.466 	13 	 -28 	 64 	-4.68125 	 1.085 	 -2.4675 	29.3 	
47.458 	 -213.988 	 888.282 	2 	 -13 	 76 	10.4388 	 16.52 	 1.54875 	29.3 	
-37.637 	 -92.232 	 1032.91 	-2 	 -5 	 84 	13.9038 	 12.7138 	 3.9375 	29.3 	
-74.664 	 -86.498 	 939.461 	-4 	 -5 	 84 	12.4513 	 -0.09625 	 2.9925 	29.3 	
-77.165 	 -163.602 	 829.478 	-5 	 -11 	 79 	8.4 	 -10.7013 	 1.82 	29.3 	
-61.488 	 -279.441 	 779.702 	-4 	 -19 	 71 	8.8725 	 -14.5163 	 2.28375 	29.3 	
-61.915 	 -388.204 	 830.759 	-3 	 -24 	 67 	16.0913 	 -11.2525 	 3.15 	29.3 	
-87.047 	 -421.51 	 941.718 	-4 	 -24 	 67 	32.3663 	 -3.92875 	 1.33 	29.3 	
-120.414 	 -421.388 	 1009.61 	-6 	 -22 	 68 	49.035 	 0.6825 	 -0.70875 	29.2 	
-112.118 	 -297.314 	 1043.53 	-5 	 -15 	 74 	60.34 	 -2.0825 	 -1.3125 	29.2 	
-91.988 	 -215.574 	 926.346 	-5 	 -13 	 77 	67.0513 	 -4.52375 	 -2.17875 	29.2 	
-69.296 	 -128.832 	 897.676 	-4 	 -8 	 81 	65.8963 	 -4.935 	 -2.93125 	29.2 	
-49.227 	 -102.114 	 933.544 	-3 	 -6 	 83 	61.4688 	 -5.87125 	 -3.0275 	29.2 	
-25.681 	 -176.656 	 968.802 	-1 	 -10 	 79 	58.8613 	 -5.565 	 -3.40375 	29.2 	
-54.778 	 -227.286 	 1017.3 	-3 	 -12 	 77 	59.8588 	 -2.695 	 -4.62 	29.2 	
-90.524 	 -228.933 	 1057.19 	-4 	 -12 	 78 	63.1225 	 -0.51625 	 -6.04625 	29.2 	
-116.937 	 -228.567 	 1067.38 	-6 	 -12 	 78 	66.255 	 -0.56 	 -7.735 	29.2 	
-132.675 	 -177.388 	 1042.55 	-7 	 -9 	 80 	67.0513 	 -2.45 	 -8.82 	29.2 	
-100.589 	 -160.43 	 1016.69 	-5 	 -8 	 81 	64.5663 	 -5.5475 	 -8.47875 	29.2 	
-42.029 	 -141.764 	 996.618 	-2 	 -8 	 81 	60.025 	 -8.4525 	 -6.7025 	29.2 	
13.481 	 -136.579 	 989.359 	0 	 -7 	 82 	56.945 	 -7.7 	 -4.50625 	29.2 	
-27.328 	 340.502 	 1062.99 	-1 	 17 	 73 	44.5638 	 -4.1475 	 -3.43875 	29.2 	
97.966 	 402.112 	 1360.12 	3 	 16 	 74 	-6.7375 	 -0.07875 	 -0.7175 	29.2 	
-7.991 	 -307.928 	 1503.89 	0 	 -11 	 78 	-29.5925 	 4.48 	 0.79625 	29.2 	
-123.586 	 -612.196 	 1363.23 	-4 	 -24 	 67 	-13.2038 	 4.0425 	 -0.07 	29.2 	
-211.487 	 -242.231 	 1100.93 	-10 	 -12 	 77 	3.05375 	 1.07625 	 -0.95375 	29.2 	
-120.841 	 -60.268 	 836.249 	-8 	 -4 	 81 	0.07875 	 -0.98875 	 0.77875 	29.2 	
-84.241 	 99.125 	 715.042 	-6 	 7 	 82 	-14.3763 	 -1.995 	 1.33875 	29.2 	
-0.183 	 2.074 	 794.525 	0 	 0 	 90 	-30.66 	 -4.76 	 1.645 	29.2 	
34.16 	 -149.328 	 924.089 	2 	 -9 	 80 	-35.0175 	 -3.5875 	 -0.4725 	29.2 	
-28.182 	 -354.471 	 1062.19 	-1 	 -18 	 72 	-28.8663 	 -0.02625 	 -1.085 	29.2 	
-112.667 	 -369.66 	 1127.95 	-5 	 -18 	 72 	-18.4975 	 2.905 	 -0.6825 	29.2 	
-104.493 	 -316.468 	 1142.84 	-5 	 -15 	 75 	-8.715 	 3.3425 	 0.41125 	29.2 	
-99.552 	 -199.714 	 1055.85 	-5 	 -10 	 79 	-2.8875 	 1.4175 	 0.42 	29.2 	
-86.498 	 -96.441 	 931.958 	-5 	 -5 	 84 	-4.76875 	 -1.47 	 0.55125 	29.2 	
-59.353 	 -78.69 	 875.533 	-3 	 -5 	 84 	-11.2175 	 -3.10625 	 0.35 	29.2 	
-35.441 	 -141.154 	 896.883 	-2 	 -8 	 81 	-16.065 	 -2.61625 	 -0.28875 	29.2 	
-53.314 	 -257.725 	 962.153 	-3 	 -14 	 75 	-14.7 	 -1.16375 	 -0.63 	29.2 	
-73.444 	 -326.777 	 1004.61 	-3 	 -17 	 72 	-7.665 	 -0.1575 	 -0.28875 	29.2 	
-88.084 	 -322.934 	 1009 	-4 	 -17 	 73 	2.12625 	 0.35 	 0.00875 	29.2 	
-92.72 	 -249.795 	 970.266 	-5 	 -14 	 76 	10.2113 	 0 	 -0.1575 	29.3 	
-82.289 	 -163.114 	 927.627 	-4 	 -9 	 80 	13.2125 	 -1.60125 	 -0.28875 	29.3 	
-65.575 	 -129.869 	 902.434 	-4 	 -8 	 81 	12.215 	 -3.08 	 -0.7 	29.3 	
-53.375 	 -159.21 	 924.394 	-3 	 -9 	 80 	10.1063 	 -3.50875 	 -0.98875 	29.3 	
-56.12 	 -222.04 	 979.233 	-3 	 -12 	 77 	10.4825 	 -3.115 	 -0.95375 	29.3 	
-69.357 	 -268.583 	 1027.24 	-3 	 -14 	 75 	14.2538 	 -1.8725 	 -0.77 	29.3 	
-82.106 	 -270.596 	 1044.87 	-4 	 -14 	 75 	20.0025 	 -0.97125 	 -0.76125 	29.3 	
-86.132 	 -220.637 	 1025.11 	-4 	 -12 	 78 	24.8675 	 -0.8925 	 -0.7875 	29.3 	
-76.189 	 -160.552 	 985.211 	-4 	 -9 	 80 	26.3638 	 -1.645 	 -1.02375 	29.2 	
-68.198 	 -121.817 	 960.323 	-4 	 -7 	 82 	24.4825 	 -2.59875 	 -1.65375 	29.2 	
-58.255 	 -125.66 	 966.484 	-3 	 -7 	 82 	21.2188 	 -3.15 	 -2.0125 	29.2 	
-52.765 	 -161.955 	 990.945 	-3 	 -9 	 80 	18.7425 	 -3.045 	 -2.45875 	29.2 	
-55.632 	 -201.666 	 1019.37 	-3 	 -11 	 79 	18.8213 	 -2.09125 	 -2.73 	29.2 	
-61.976 	 85.522 	 1108.43 	-3 	 4 	 85 	11.3663 	 -1.33 	 -2.02125 	29.2 	
0.854 	 -59.048 	 1221.65 	0 	 -2 	 87 	-7.91875 	 -0.665 	 -0.4025 	29.2 	
-71.797 	 -410.957 	 1152.17 	-3 	 -19 	 71 	-6.51875 	 0.84875 	 -0.1225 	29.2 	
-147.864 	 -304.024 	 1062.07 	-7 	 -15 	 74 	4.3925 	 1.44375 	 -0.56875 	29.2 	
-117.181 	 -114.009 	 970.205 	-6 	 -6 	 83 	7.2975 	 -0.21 	 -1.12875 	29.2 	
-42.212 	 -48.922 	 919.331 	-2 	 -3 	 86 	1.715 	 -3.08 	 -1.33 	29.2 	
-4.087 	 -57.157 	 864.065 	0 	 -3 	 86 	-5.29375 	 -4.8125 	 -0.98875 	29.2 	
5.49 	 -157.99 	 888.404 	0 	 -10 	 80 	-9.66875 	 -2.68625 	 -0.35 	29.2 	
-55.632 	 -242.841 	 989.115 	-3 	 -13 	 76 	-8.9775 	 1.25125 	 -0.11375 	29.2 	
-103.273 	 -279.807 	 1103.8 	-5 	 -14 	 76 	-4.05125 	 2.7475 	 -0.1575 	29.2 	
-129.015 	 -264.923 	 1118.13 	-6 	 -13 	 77 	1.925 	 0.1575 	 -0.28875 	29.2 	
-89.365 	 -218.319 	 1040.54 	-4 	 -11 	 78 	5.94125 	 -2.26625 	 -0.79625 	29.2 	
-49.288 	 -146.034 	 962.458 	-2 	 -8 	 81 	6.7375 	 -2.485 	 -0.90125 	29.2 	
-42.639 	 -105.957 	 926.041 	-2 	 -6 	 83 	3.955 	 -1.86375 	 -0.72625 	29.2 	
-52.704 	 -122.122 	 950.685 	-3 	 -7 	 82 	-0.1575 	 -1.365 	 -0.70875 	29.2 	
-69.296 	 -190.747 	 990.945 	-3 	 -10 	 79 	-1.89875 	 -1.54875 	 -0.63 	29.2 	
-70.638 	 -259.067 	 1015.59 	-3 	 -14 	 76 	0.46375 	 -1.4875 	 -0.51625 	29.2 	
-76.372 	 -279.502 	 1013.33 	-4 	 -15 	 75 	6.4925 	 -0.79625 	 -0.525 	29.2 	
-84.058 	 -210.389 	 997.35 	-4 	 -11 	 78 	12.04 	 -0.315 	 -0.6125 	29.2 	
-71.736 	 49.471 	 1026.2 	-3 	 2 	 86 	6.7375 	 -1.53125 	 -0.8575 	29.2 	
-32.33 	 -90.524 	 1044.26 	-1 	 -4 	 85 	-5.60875 	 -2.72125 	 -0.72625 	29.2 	
-66.917 	 -307.379 	 1001.8 	-3 	 -17 	 73 	-6.0375 	 -1.77625 	 -0.42 	29.2 	
-93.147 	 -264.374 	 1026.93 	-5 	 -14 	 76 	0.035 	 0.63875 	 -0.7 	29.2 	
-83.875 	 -199.348 	 1042.98 	-4 	 -10 	 79 	4.48 	 0.175 	 -0.74375 	29.2 	
-71.736 	 -139.019 	 990.884 	-4 	 -7 	 82 	5.25875 	 -1.82875 	 -0.63875 	29.2 	
-51.179 	 -95.16 	 942.572 	-3 	 -5 	 84 	1.4175 	 -2.485 	 -0.69125 	29.2 	
-35.746 	 -164.09 	 952.82 	-2 	 -9 	 80 	-2.14375 	 -1.645 	 -0.6475 	29.2 	
-74.603 	 -217.16 	 985.516 	-4 	 -12 	 77 	-1.30375 	 -0.51625 	 -0.32375 	29.3 	
-91.256 	 -217.953 	 1034.87 	-4 	 -11 	 78 	0.83125 	 -0.455 	 -0.6475 	29.3 	
-76.982 	 -177.266 	 1051.7 	-4 	 -9 	 80 	2.56375 	 -1.75 	 -0.79625 	29.3 	
-46.726 	 -150.243 	 1025.65 	-2 	 -8 	 81 	1.56625 	 -1.995 	 -0.5775 	29.3 	
-51.057 	 -173.85 	 1003.14 	-2 	 -9 	 80 	0.11375 	 -0.53375 	 -0.35875 	29.3 	
-78.446 	 -200.934 	 1004.43 	-4 	 -11 	 78 	0.0875 	 0.28875 	 -0.20125 	29.3 	
-91.683 	 -188.124 	 1005.89 	-5 	 -10 	 79 	1.23375 	 -0.7525 	 -0.60375 	29.3 	
-71.248 	 -163.236 	 991.494 	-4 	 -9 	 80 	1.47 	 -2.33625 	 -0.91875 	29.3 	
-41.785 	 -157.807 	 970.632 	-2 	 -9 	 80 	0.74375 	 -2.66 	 -0.735 	29.2 	
-41.114 	 -173.85 	 970.815 	-2 	 -10 	 80 	0.48125 	 -1.28625 	 -0.35 	29.2 	
-68.381 	 -183.915 	 1003.63 	-3 	 -10 	 79 	0.35875 	 0.1575 	 -0.27125 	29.2 	
-90.28 	 -184.159 	 1038.71 	-4 	 -10 	 80 	0.34125 	 -0.315 	 -0.4375 	29.2 	
-83.082 	 -185.501 	 1038.16 	-4 	 -10 	 80 	0.315 	 -1.82875 	 -0.735 	29.2 	
-55.388 	 -185.501 	 1008.7 	-3 	 -10 	 79 	0.62125 	 -2.35375 	 -0.81375 	29.2 	
-46.421 	 -180.926 	 988.2 	-2 	 -10 	 79 	1.0325 	 -1.35625 	 -0.4725 	29.2 	
-62.891 	 -174.704 	 992.531 	-3 	 -9 	 80 	1.12875 	 -0.02625 	 -0.34125 	29.2 	
-80.947 	 -176.351 	 1005.28 	-4 	 -9 	 80 	0.93625 	 -0.49 	 -0.46375 	29.2 	
-77.897 	 -183.061 	 1004.85 	-4 	 -10 	 79 	0.8225 	 -1.645 	 -0.665 	29.2 	
-59.414 	 -182.207 	 995.52 	-3 	 -10 	 79 	0.805 	 -2.26625 	 -0.83125 	29.2 	
-51.789 	 -175.985 	 990.03 	-2 	 -10 	 80 	0.9975 	 -1.5575 	 -0.60375 	29.2 	
-59.109 	 -176.351 	 1003.02 	-3 	 -9 	 80 	0.72625 	 -0.70875 	 -0.455 	29.2 	
-75.579 	 -184.708 	 1017.11 	-4 	 -10 	 79 	0.4725 	 -0.39375 	 -0.41125 	29.2 	
-77.043 	 -191.052 	 1017.05 	-4 	 -10 	 79 	0.48125 	 -0.93625 	 -0.4725 	29.2 	
-69.418 	 -183.244 	 1004.43 	-3 	 -10 	 79 	0.805 	 -1.4875 	 -0.77875 	29.2 	
-61.244 	 -175.009 	 995.459 	-3 	 -9 	 80 	0.88375 	 -1.4525 	 -0.6475 	29.2 	
-60.817 	 -174.338 	 991.311 	-3 	 -9 	 80 	0.7 	 -1.12 	 -0.595 	29.2 	
-66.612 	 -180.682 	 997.716 	-3 	 -10 	 79 	0.525 	 -0.83125 	 -0.5775 	29.2 	
-71.797 	 -182.024 	 1001.68 	-4 	 -10 	 79 	0.7 	 -1.085 	 -0.55125 	29.2 	
-69.235 	 -181.17 	 1003.69 	-3 	 -10 	 79 	0.63875 	 -1.25125 	 -0.665 	29.2 	
-66.49 	 -178.12 	 1006.32 	-3 	 -10 	 80 	0.665 	 -1.26875 	 -0.60375 	29.2 	
-66.612 	 -181.292 	 1006.19 	-3 	 -10 	 79 	0.455 	 -1.16375 	 -0.56 	29.2 	
-70.455 	 -184.708 	 1007.72 	-3 	 -10 	 79 	0.6125 	 -1.05 	 -0.595 	29.2 	
-69.784 	 -182.451 	 1006.38 	-3 	 -10 	 79 	0.84875 	 -1.05 	 -0.55125 	29.2 	
-68.381 	 -178.547 	 1004.18 	-3 	 -10 	 80 	0.805 	 -1.1025 	 -0.6475 	29.2 	
-67.771 	 -176.168 	 1001.92 	-3 	 -9 	 80 	0.84 	 -1.21625 	 -0.5075 	29.2 	
-68.198 	 -177.449 	 998.021 	-3 	 -10 	 80 	0.84875 	 -1.33875 	 -0.56875 	29.2 	
-66.551 	 -176.961 	 999.973 	-3 	 -10 	 80 	0.7175 	 -1.2075 	 -0.53375 	29.2 	
-66.49 	 -177.876 	 1000.16 	-3 	 -10 	 80 	0.7175 	 -1.26 	 -0.56 	29.2 	
-65.758 	 -177.022 	 1002.41 	-3 	 -9 	 80 	0.665 	 -1.21625 	 -0.51625 	29.2 	
-67.771 	 -178.242 	 1003.63 	-3 	 -10 	 80 	0.5775 	 -1.04125 	 -0.5425 	29.2 	
-67.832 	 -178.73 	 1007.6 	-3 	 -10 	 80 	0.6825 	 -1.05875 	 -0.60375 	29.3 	
-68.991 	 -177.876 	 1007.23 	-3 	 -9 	 80 	0.70875 	 -1.11125 	 -0.65625 	29.3 	
-68.991 	 -176.351 	 1004.3 	-3 	 -9 	 80 	0.63875 	 -1.23375 	 -0.56 	29.3 	
-65.27 	 -175.558 	 1003.39 	-3 	 -9 	 80 	0.7525 	 -1.26875 	 -0.62125 	29.3 	
-65.148 	 -174.46 	 1003.21 	-3 	 -9 	 80 	0.67375 	 -1.12 	 -0.4725 	29.3 	
-67.588 	 -175.314 	 1006.99 	-3 	 -9 	 80 	0.81375 	 -1.1025 	 -0.525 	29.3 	
-67.527 	 -175.253 	 1005.1 	-3 	 -9 	 80 	0.91 	 -1.0325 	 -0.49 	29.3 	
-66.002 	 -173.911 	 1004.3 	-3 	 -9 	 80 	0.805 	 -1.12875 	 -0.53375 	29.3 	
-62.83 	 -175.436 	 1003.75 	-3 	 -9 	 80 	0.7175 	 -1.25125 	 -0.7175 	29.2 	
-64.66 	 -176.29 	 1004.61 	-3 	 -9 	 80 	0.6825 	 -1.1375 	 -0.63875 	29.2 	
-63.867 	 -178.059 	 1006.01 	-3 	 -10 	 80 	0.77875 	 -1.04125 	 -0.49875 	29.2 	
-63.318 	 -178.242 	 1004.12 	-3 	 -10 	 80 	0.77875 	 -1.225 	 -0.48125 	29.2 	
-64.599 	 -175.192 	 1003.02 	-3 	 -9 	 80 	0.735 	 -1.28625 	 -0.56875 	29.2 	
-62.891 	 -176.107 	 1000.77 	-3 	 -9 	 80 	0.7875 	 -1.19875 	 -0.62125 	29.2 	
-62.342 	 -176.656 	 1001.68 	-3 	 -9 	 80 	0.63 	 -1.3125 	 -0.6825 	29.2 	
-64.294 	 -179.767 	 1003.21 	-3 	 -10 	 79 	0.735 	 -1.19 	 -0.56 	29.2 	
-64.111 	 -178.73 	 1003.88 	-3 	 -10 	 80 	0.74375 	 -1.0325 	 -0.5425 	29.3 	
-66.002 	 -178.791 	 1002.9 	-3 	 -10 	 80 	0.72625 	 -1.085 	 -0.56 	29.3 	
-66.429 	 -180.133 	 1003.82 	-3 	 -10 	 79 	0.62125 	 -1.2075 	 -0.53375 	29.3 	
-67.588 	 -182.39 	 1005.1 	-3 	 -10 	 79 	0.8575 	 -1.19 	 -0.62125 	29.3 	
-65.514 	 -182.146 	 1005.4 	-3 	 -10 	 79 	0.7525 	 -1.21625 	 -0.60375 	29.3 	
-64.477 	 -182.024 	 1005.16 	-3 	 -10 	 79 	0.7525 	 -1.09375 	 -0.53375 	29.3 	
-66.734 	 -180.926 	 1003.08 	-3 	 -10 	 79 	0.8575 	 -1.19875 	 -0.5775 	29.3 	
-67.954 	 -183.183 	 1002.84 	-3 	 -10 	 79 	0.84875 	 -1.2775 	 -0.525 	29.3 	
-67.71 	 -182.634 	 1001.62 	-3 	 -10 	 79 	0.77 	 -1.19 	 -0.42875 	29.2 	
-66.551 	 -183.61 	 999.424 	-3 	 -10 	 79 	0.60375 	 -1.295 	 -0.44625 	29.2 	
-68.076 	 -183.122 	 1000.16 	-3 	 -10 	 79 	0.77 	 -1.2775 	 -0.53375 	29.2 	
-69.418 	 -182.573 	 1002.66 	-3 	 -10 	 79 	0.77 	 -1.1375 	 -0.5775 	29.2 	
-68.381 	 -185.623 	 1004.24 	-3 	 -10 	 79 	0.56 	 -1.12 	 -0.48125 	29.2 	
-71.126 	 -184.159 	 1003.08 	-3 	 -10 	 79 	0.6125 	 -1.155 	 -0.53375 	29.2 	
-69.906 	 -184.22 	 1002.84 	-3 	 -10 	 79 	0.69125 	 -1.23375 	 -0.4025 	29.2 	
-69.906 	 -183 	 1002.11 	-3 	 -10 	 79 	0.77875 	 -1.19 	 -0.53375 	29.2 	
-70.333 	 -183 	 1001.25 	-3 	 -10 	 79 	0.81375 	 -1.09375 	 -0.63 	29.2 	
-71.004 	 -182.329 	 1000.22 	-3 	 -10 	 79 	0.69125 	 -0.9975 	 -0.5075 	29.2 	
-69.113 	 -181.841 	 1000.46 	-3 	 -10 	 79 	0.69125 	 -1.1025 	 -0.525 	29.2 	
-68.869 	 -180.804 	 1000.1 	-3 	 -10 	 79 	0.69125 	 -1.21625 	 -0.49875 	29.2 	
-68.076 	 -179.279 	 1001.19 	-3 	 -10 	 80 	0.74375 	 -1.1375 	 -0.4025 	29.2 	
-67.71 	 -180.194 	 1003.02 	-3 	 -10 	 79 	0.7525 	 -1.155 	 -0.44625 	29.2 	
-68.198 	 -179.096 	 1004.55 	-3 	 -10 	 80 	0.7875 	 -1.23375 	 -0.4725 	29.2 	
-67.161 	 -178.852 	 1005.04 	-3 	 -10 	 80 	0.7 	 -1.2075 	 -0.48125 	29.2 	
-66.673 	 -177.693 	 1003.39 	-3 	 -10 	 80 	0.69125 	 -1.04125 	 -0.4725 	29.2 	
-67.039 	 -176.29 	 1001.38 	-3 	 -9 	 80 	0.7875 	 -1.09375 	 -0.62125 	29.2 	
-64.782 	 -176.351 	 1002.23 	-3 	 -9 	 80 	0.595 	 -1.14625 	 -0.51625 	29.2 	
-64.355 	 -175.131 	 1002.72 	-3 	 -9 	 80 	0.6825 	 -1.19875 	 -0.53375 	29.2 	
-63.745 	 -176.351 	 1003.69 	-3 	 -9 	 80 	0.735 	 -1.2075 	 -0.665 	29.2 	
-63.318 	 -174.094 	 1004.24 	-3 	 -9 	 80 	0.70875 	 -1.1375 	 -0.5775 	29.2 	
-64.111 	 -175.253 	 1005.1 	-3 	 -9 	 80 	0.805 	 -1.19875 	 -0.56875 	29.2 	
-64.782 	 -176.9 	 1005.65 	-3 	 -9 	 80 	0.7 	 -1.0675 	 -0.55125 	29.2 	
-65.087 	 -176.473 	 1006.07 	-3 	 -9 	 80 	0.60375 	 -1.19875 	 -0.5425 	29.3 	
-63.745 	 -176.046 	 1004.91 	-3 	 -9 	 80 	0.79625 	 -1.26875 	 -0.49 	29.3 	
-63.867 	 -175.924 	 1004.85 	-3 	 -9 	 80 	0.7 	 -1.18125 	 -0.525 	29.3 	
-66.673 	 -174.948 	 1001.68 	-3 	 -9 	 80 	0.72625 	 -1.21625 	 -0.5075 	29.3 	
-63.745 	 -176.9 	 1001.8 	-3 	 -9 	 80 	0.79625 	 -1.16375 	 -0.455 	29.3 	
-64.355 	 -176.839 	 1000.89 	-3 	 -9 	 80 	0.83125 	 -1.16375 	 -0.44625 	29.3 	
-66.795 	 -176.656 	 1004.49 	-3 	 -9 	 80 	0.6475 	 -1.12 	 -0.63875 	29.3 	
-67.466 	 -177.388 	 1004.98 	-3 	 -9 	 80 	0.6825 	 -1.2075 	 -0.49875 	29.3 	
-68.808 	 -179.218 	 1003.82 	-3 	 -10 	 80 	0.72625 	 -1.12875 	 -0.49 	29.2 	
-66.734 	 -180.926 	 1004.12 	-3 	 -10 	 79 	0.65625 	 -1.21625 	 -0.48125 	29.2 	
-68.32 	 -180.133 	 1003.45 	-3 	 -10 	 79 	0.595 	 -1.18125 	 -0.49 	29.2 	
-67.771 	 -180.438 	 1000.89 	-3 	 -10 	 79 	0.62125 	 -1.085 	 -0.41125 	29.2 	
-68.137 	 -179.462 	 998.509 	-3 	 -10 	 79 	0.63875 	 -1.14625 	 -0.55125 	29.2 	
-69.357 	 -181.902 	 1001.56 	-3 	 -10 	 79 	0.69125 	 -1.12 	 -0.53375 	29.2 	
-70.577 	 -181.292 	 1000.52 	-3 	 -10 	 79 	0.76125 	 -1.1725 	 -0.55125 	29.2 	
-70.577 	 -181.597 	 1004.37 	-3 	 -10 	 79 	0.5775 	 -1.1725 	 -0.56 	29.2 	
